TimeStamp,UnixTime,QuestionKey,Delta_TP9,Delta_AF7,Delta_AF8,Delta_TP10,Theta_TP9,Theta_AF7,Theta_AF8,Theta_TP10,Alpha_TP9,Alpha_AF7,Alpha_AF8,Alpha_TP10,Beta_TP9,Beta_AF7,Beta_AF8,Beta_TP10,Gamma_TP9,Gamma_AF7,Gamma_AF8,Gamma_TP10,RAW_TP9,RAW_AF7,RAW_AF8,RAW_TP10,AUX_RIGHT,Accelerometer_X,Accelerometer_Y,Accelerometer_Z,Gyro_X,Gyro_Y,Gyro_Z,HeadBandOn,HSI_TP9,HSI_AF7,HSI_AF8,HSI_TP10,Battery,Elements,Participant
2023-03-28 17:03:16.773,1680003196.773,,0.5585973,-0.10042499,0.47577524,1.8552603,0.50948554,-0.13581626,-0.22242399,0.37628347,1.0695729,-0.09578139,0.16498706,1.2178344,0.54030496,-0.46920484,0.16199751,1.2943034,-0.041819375,-0.93932545,-0.10097682,1.2915044,845.34796,852.1978,852.1978,1209.1941,824.3956,-0.05902099609375,0.15167236328125,0.9981689453125,-0.710296630859375,2.579498291015625,4.42626953125,1.0,1.0,1.0,1.0,2.0,92.98,,1
2023-03-28 17:03:16.776,1680003196.776,,0.5585973,-0.10042499,0.47577524,1.8552603,0.50948554,-0.13581626,-0.22242399,0.37628347,1.0695729,-0.09578139,0.16498706,1.2178344,0.54030496,-0.46920484,0.16199751,1.2943034,-0.041819375,-0.93932545,-0.10097682,1.2915044,851.39197,850.18317,854.21246,1202.3444,850.989,-0.05902099609375,0.15167236328125,0.9981689453125,-0.710296630859375,2.579498291015625,4.42626953125,1.0,1.0,1.0,1.0,2.0,92.98,,1
2023-03-28 17:03:16.778,1680003196.778,,0.5585973,-0.10042499,0.47577524,1.8552603,0.50948554,-0.13581626,-0.22242399,0.37628347,1.0695729,-0.09578139,0.16498706,1.2178344,0.54030496,-0.46920484,0.16199751,1.2943034,-0.041819375,-0.93932545,-0.10097682,1.2915044,843.73627,848.5714,857.4359,1163.2601,857.8388,-0.05902099609375,0.15167236328125,0.9981689453125,-0.710296630859375,2.579498291015625,4.42626953125,1.0,1.0,1.0,1.0,2.0,92.98,,1
2023-03-28 17:03:16.798,1680003196.798,,0.5585973,-0.10042499,0.47577524,1.8552603,0.50948554,-0.13581626,-0.22242399,0.37628347,1.0695729,-0.09578139,0.056793645,1.2178344,0.54030496,-0.46920484,0.16199751,1.2943034,-0.041819375,-0.93932545,-0.10097682,1.2915044,843.73627,848.5714,857.4359,1163.2601,857.8388,-0.05902099609375,0.15167236328125,0.9981689453125,-0.710296630859375,2.579498291015625,4.42626953125,1.0,1.0,1.0,1.0,2.0,92.98,,1
2023-03-28 17:03:16.801,1680003196.801,,0.5585973,-0.10042499,0.47577524,1.8552603,0.50948554,-0.13581626,-0.22242399,0.37628347,1.0695729,-0.09578139,0.056793645,1.2178344,0.5443337,-0.45713365,0.1538994,1.2943034,-0.041819375,-0.93932545,-0.10097682,1.2915044,843.73627,848.5714,857.4359,1163.2601,857.8388,-0.05902099609375,0.15167236328125,0.9981689453125,-0.710296630859375,2.579498291015625,4.42626953125,1.0,1.0,1.0,1.0,2.0,92.98,,1
2023-03-28 17:03:16.803,1680003196.803,,0.53771317,-0.18335883,0.42177776,1.8552603,0.50948554,-0.13581626,-0.22242399,0.37628347,1.0695729,-0.09578139,0.056793645,1.2178344,0.5443337,-0.45713365,0.1538994,1.2943034,-0.041819375,-0.93932545,-0.10097682,1.2915044,843.73627,848.5714,857.4359,1163.2601,857.8388,-0.05902099609375,0.15167236328125,0.9981689453125,-0.710296630859375,2.579498291015625,4.42626953125,1.0,1.0,1.0,1.0,2.0,92.98,,1
2023-03-28 17:03:16.805,1680003196.805,,0.53771317,-0.18335883,0.42177776,1.8552603,0.5161955,-0.123843625,-0.25591284,0.37628347,1.0695729,-0.09578139,0.056793645,1.2178344,0.5443337,-0.45713365,0.1538994,1.2943034,-0.041819375,-0.93932545,-0.10097682,1.2915044,843.73627,848.5714,857.4359,1163.2601,857.8388,-0.05902099609375,0.15167236328125,0.9981689453125,-0.710296630859375,2.579498291015625,4.42626953125,1.0,1.0,1.0,1.0,2.0,92.98,,1
2023-03-28 17:03:16.807,1680003196.807,,0.53771317,-0.18335883,0.42177776,1.8552603,0.5161955,-0.123843625,-0.25591284,0.37628347,1.0695729,-0.09578139,0.056793645,1.2178344,0.5443337,-0.45713365,0.1538994,1.2943034,-0.055893894,-0.95106786,-0.12006554,1.2915044,843.73627,848.5714,857.4359,1163.2601,857.8388,-0.05902099609375,0.15167236328125,0.9981689453125,-0.710296630859375,2.579498291015625,4.42626953125,1.0,1.0,1.0,1.0,2.0,92.98,,1
2023-03-28 17:03:16.783,1680003196.783,,0.53771317,-0.18335883,0.42177776,1.8552603,0.5161955,-0.123843625,-0.25591284,0.37628347,1.0695729,-0.09578139,0.056793645,1.2178344,0.5443337,-0.45713365,0.1538994,1.2943034,-0.055893894,-0.95106786,-0.12006554,1.2915044,834.87177,848.5714,857.03296,1116.9231,848.1685,-0.05902099609375,0.15167236328125,0.9981689453125,-0.710296630859375,2.579498291015625,4.42626953125,1.0,1.0,1.0,1.0,2.0,92.98,,1
2023-03-28 17:03:16.812,1680003196.812,,0.53771317,-0.18335883,0.42177776,1.8552603,0.5161955,-0.123843625,-0.25591284,0.37628347,1.0695729,-0.09578139,0.056793645,1.2178344,0.5443337,-0.45713365,0.1538994,1.2943034,-0.055893894,-0.95106786,-0.12006554,1.2915044,836.08057,847.3626,857.03296,1091.1355,848.1685,-0.05902099609375,0.15167236328125,0.9981689453125,-0.710296630859375,2.579498291015625,4.42626953125,1.0,1.0,1.0,1.0,2.0,92.98,,1
2023-03-28 17:03:16.815,1680003196.815,,0.53771317,-0.18335883,0.42177776,1.8552603,0.5161955,-0.123843625,-0.25591284,0.37628347,1.0695729,-0.09578139,0.056793645,1.2178344,0.5443337,-0.45713365,0.1538994,1.2943034,-0.055893894,-0.95106786,-0.12006554,1.2915044,845.34796,846.9597,856.63007,1101.6117,887.6557,-0.05902099609375,0.15167236328125,0.9981689453125,-0.710296630859375,2.579498291015625,4.42626953125,1.0,1.0,1.0,1.0,2.0,92.98,,1
2023-03-28 17:03:16.817,1680003196.817,,0.53771317,-0.18335883,0.42177776,1.8552603,0.5161955,-0.123843625,-0.25591284,0.37628347,1.0695729,-0.09578139,0.056793645,1.2178344,0.5443337,-0.45713365,0.1538994,1.2943034,-0.055893894,-0.95106786,-0.12006554,1.2915044,850.58606,849.3773,854.21246,1098.3883,915.4579,-0.05902099609375,0.15167236328125,0.9981689453125,-0.710296630859375,2.579498291015625,4.42626953125,1.0,1.0,1.0,1.0,2.0,92.98,,1
2023-03-28 17:03:16.819,1680003196.819,,0.53771317,-0.18335883,0.42177776,1.8552603,0.5161955,-0.123843625,-0.25591284,0.37628347,1.0695729,-0.09578139,0.056793645,1.2178344,0.5443337,-0.45713365,0.1538994,1.2943034,-0.055893894,-0.95106786,-0.12006554,1.2915044,844.1392,850.989,854.61536,1037.5458,888.86444,-0.05902099609375,0.15167236328125,0.9981689453125,-0.710296630859375,2.579498291015625,4.42626953125,1.0,1.0,1.0,1.0,2.0,92.98,,1
2023-03-28 17:03:16.821,1680003196.821,,0.53771317,-0.18335883,0.42177776,1.8552603,0.5161955,-0.123843625,-0.25591284,0.37628347,1.0695729,-0.09578139,0.056793645,1.2178344,0.5443337,-0.45713365,0.1538994,1.2943034,-0.055893894,-0.95106786,-0.12006554,1.2915044,833.2601,849.7802,849.7802,978.315,851.39197,-0.05902099609375,0.15167236328125,0.9981689453125,-0.710296630859375,2.579498291015625,4.42626953125,1.0,1.0,1.0,1.0,2.0,92.98,,1
2023-03-28 17:03:16.824,1680003196.824,,0.53771317,-0.18335883,0.42177776,1.8552603,0.5161955,-0.123843625,-0.25591284,0.37628347,1.0695729,-0.09578139,0.056793645,1.2178344,0.5443337,-0.45713365,0.1538994,1.2943034,-0.055893894,-0.95106786,-0.12006554,1.2915044,834.87177,847.3626,852.1978,960.58606,851.79486,-0.05902099609375,0.15167236328125,0.9981689453125,-0.710296630859375,2.579498291015625,4.42626953125,1.0,1.0,1.0,1.0,2.0,92.98,,1
2023-03-28 17:03:16.826,1680003196.826,,0.53771317,-0.18335883,0.42177776,1.8552603,0.5161955,-0.123843625,-0.25591284,0.37628347,1.0695729,-0.09578139,0.056793645,1.2178344,0.5443337,-0.45713365,0.1538994,1.2943034,-0.055893894,-0.95106786,-0.12006554,1.2915044,848.5714,848.5714,859.0476,954.94507,860.2564,-0.05902099609375,0.15167236328125,0.9981689453125,-0.710296630859375,2.579498291015625,4.42626953125,1.0,1.0,1.0,1.0,2.0,92.98,,1
2023-03-28 17:03:16.828,1680003196.828,,0.53771317,-0.18335883,0.42177776,1.8552603,0.5161955,-0.123843625,-0.25591284,0.37628347,1.0695729,-0.09578139,0.056793645,1.2178344,0.5443337,-0.45713365,0.1538994,1.2943034,-0.055893894,-0.95106786,-0.12006554,1.2915044,861.4652,851.79486,854.21246,945.6777,867.1062,-0.05902099609375,0.15167236328125,0.9981689453125,-0.710296630859375,2.579498291015625,4.42626953125,1.0,1.0,1.0,1.0,2.0,92.98,,1
2023-03-28 17:03:16.831,1680003196.831,,0.53771317,-0.18335883,0.42177776,1.8552603,0.5161955,-0.123843625,-0.25591284,0.37628347,1.0695729,-0.09578139,0.056793645,1.2178344,0.5443337,-0.45713365,0.1538994,1.2943034,-0.055893894,-0.95106786,-0.12006554,1.2915044,859.0476,851.79486,855.0183,931.1722,877.5824,-0.05914306640625,0.15093994140625,0.9952392578125,-0.575714111328125,2.94586181640625,3.768310546875,1.0,1.0,1.0,1.0,2.0,92.98,,1
2023-03-28 17:03:16.833,1680003196.833,,0.53771317,-0.18335883,0.42177776,1.8552603,0.5161955,-0.123843625,-0.25591284,0.37628347,1.0695729,-0.09578139,0.056793645,1.2178344,0.5443337,-0.45713365,0.1538994,1.2943034,-0.055893894,-0.95106786,-0.12006554,1.2915044,840.10986,848.5714,858.6447,889.2674,856.2271,-0.05914306640625,0.15093994140625,0.9952392578125,-0.575714111328125,2.94586181640625,3.768310546875,1.0,1.0,1.0,1.0,2.0,92.98,,1
2023-03-28 17:03:16.836,1680003196.836,,0.53771317,-0.18335883,0.42177776,1.8552603,0.5161955,-0.123843625,-0.25591284,0.37628347,1.0695729,-0.09578139,0.056793645,1.2178344,0.5443337,-0.45713365,0.1538994,1.2943034,-0.055893894,-0.95106786,-0.12006554,1.2915044,835.2747,846.55676,859.45056,847.76556,824.7985,-0.05914306640625,0.15093994140625,0.9952392578125,-0.575714111328125,2.94586181640625,3.768310546875,1.0,1.0,1.0,1.0,2.0,92.98,,1
2023-03-28 17:03:16.838,1680003196.838,,0.53771317,-0.18335883,0.42177776,1.8552603,0.5161955,-0.123843625,-0.25591284,0.37628347,1.0695729,-0.09578139,0.056793645,1.2178344,0.5443337,-0.45713365,0.1538994,1.2943034,-0.055893894,-0.95106786,-0.12006554,1.2915044,847.3626,846.9597,858.24176,837.28937,823.5897,-0.05914306640625,0.15093994140625,0.9952392578125,-0.575714111328125,2.94586181640625,3.768310546875,1.0,1.0,1.0,1.0,2.0,92.98,,1
2023-03-28 17:03:16.840,1680003196.84,,0.53771317,-0.18335883,0.42177776,1.8552603,0.5161955,-0.123843625,-0.25591284,0.37628347,1.0695729,-0.09578139,0.056793645,1.2178344,0.5443337,-0.45713365,0.1538994,1.2943034,-0.055893894,-0.95106786,-0.12006554,1.2915044,860.65936,848.1685,854.61536,855.42126,857.03296,-0.05914306640625,0.15093994140625,0.9952392578125,-0.575714111328125,2.94586181640625,3.768310546875,1.0,1.0,1.0,1.0,2.0,92.98,,1
2023-03-28 17:03:16.842,1680003196.842,,0.53771317,-0.18335883,0.42177776,1.8552603,0.5161955,-0.123843625,-0.25591284,0.37628347,1.0695729,-0.09578139,0.056793645,1.2178344,0.5443337,-0.45713365,0.1538994,1.2943034,-0.055893894,-0.95106786,-0.12006554,1.2915044,856.63007,849.7802,853.00366,863.47986,884.83514,-0.05914306640625,0.15093994140625,0.9952392578125,-0.575714111328125,2.94586181640625,3.768310546875,1.0,1.0,1.0,1.0,2.0,92.98,,1
2023-03-28 17:03:16.845,1680003196.845,,0.53771317,-0.18335883,0.42177776,1.8552603,0.5161955,-0.123843625,-0.25591284,0.37628347,1.0695729,-0.09578139,0.056793645,1.2178344,0.5443337,-0.45713365,0.1538994,1.2943034,-0.055893894,-0.95106786,-0.12006554,1.2915044,845.34796,852.1978,848.1685,834.0659,871.53845,-0.05914306640625,0.15093994140625,0.9952392578125,-0.575714111328125,2.94586181640625,3.768310546875,1.0,1.0,1.0,1.0,2.0,92.98,,1
2023-03-28 17:03:16.847,1680003196.847,,0.53771317,-0.18335883,0.42177776,1.8552603,0.5161955,-0.123843625,-0.25591284,0.37628347,1.0695729,-0.09578139,0.056793645,1.2178344,0.5443337,-0.45713365,0.1538994,1.2943034,-0.055893894,-0.95106786,-0.12006554,1.2915044,846.9597,851.39197,848.1685,812.71063,856.2271,-0.05914306640625,0.15093994140625,0.9952392578125,-0.575714111328125,2.94586181640625,3.768310546875,1.0,1.0,1.0,1.0,2.0,92.98,,1
2023-03-28 17:03:16.849,1680003196.849,,0.53771317,-0.18335883,0.42177776,1.8552603,0.5161955,-0.123843625,-0.25591284,0.37628347,1.0695729,-0.09578139,0.056793645,1.2178344,0.5443337,-0.45713365,0.1538994,1.2943034,-0.055893894,-0.95106786,-0.12006554,1.2915044,847.3626,849.3773,853.4066,808.2784,857.03296,-0.05914306640625,0.15093994140625,0.9952392578125,-0.575714111328125,2.94586181640625,3.768310546875,1.0,1.0,1.0,1.0,2.0,92.98,,1
2023-03-28 17:03:16.851,1680003196.851,,0.53771317,-0.18335883,0.42177776,1.8552603,0.5161955,-0.123843625,-0.25591284,0.37628347,1.0695729,-0.09578139,0.056793645,1.2178344,0.5443337,-0.45713365,0.1538994,1.2943034,-0.055893894,-0.95106786,-0.12006554,1.2915044,855.82416,850.58606,856.63007,784.5055,842.1245,-0.05914306640625,0.15093994140625,0.9952392578125,-0.575714111328125,2.94586181640625,3.768310546875,1.0,1.0,1.0,1.0,2.0,92.98,,1
2023-03-28 17:03:16.854,1680003196.854,,0.53771317,-0.18335883,0.42177776,1.8552603,0.5161955,-0.123843625,-0.25591284,0.37628347,1.0695729,-0.09578139,0.056793645,1.2178344,0.5443337,-0.45713365,0.1538994,1.2943034,-0.055893894,-0.95106786,-0.12006554,1.2915044,863.0769,853.00366,858.24176,768.3883,835.2747,-0.05914306640625,0.15093994140625,0.9952392578125,-0.575714111328125,2.94586181640625,3.768310546875,1.0,1.0,1.0,1.0,2.0,92.98,,1
2023-03-28 17:03:16.856,1680003196.856,,0.53771317,-0.18335883,0.42177776,1.8552603,0.5161955,-0.123843625,-0.25591284,0.37628347,1.0695729,-0.09578139,0.056793645,1.2178344,0.5443337,-0.45713365,0.1538994,1.2943034,-0.055893894,-0.95106786,-0.12006554,1.2915044,846.55676,852.1978,856.63007,746.63007,822.381,-0.05914306640625,0.15093994140625,0.9952392578125,-0.575714111328125,2.94586181640625,3.768310546875,1.0,1.0,1.0,1.0,2.0,92.98,,1
2023-03-28 17:03:16.909,1680003196.909,,0.53771317,-0.18335883,0.42177776,1.8552603,0.5161955,-0.123843625,-0.25591284,0.37628347,1.0695729,-0.09578139,0.056793645,1.2178344,0.5443337,-0.45713365,0.1538994,1.2943034,-0.055893894,-0.95106786,-0.12006554,1.2915044,842.52747,848.97437,859.85345,741.79486,822.381,-0.05914306640625,0.15093994140625,0.9952392578125,-0.575714111328125,2.94586181640625,3.768310546875,1.0,1.0,1.0,1.0,2.0,92.98,,1
2023-03-28 17:03:16.911,1680003196.911,,0.53771317,-0.18335883,0.42177776,1.8552603,0.5161955,-0.123843625,-0.25591284,0.37628347,1.0695729,-0.09578139,0.056793645,1.2178344,0.5443337,-0.45713365,0.1538994,1.2943034,-0.055893894,-0.95106786,-0.12006554,1.2915044,852.6007,848.97437,861.4652,745.82416,830.0366,-0.05914306640625,0.15093994140625,0.9952392578125,-0.575714111328125,2.94586181640625,3.768310546875,1.0,1.0,1.0,1.0,2.0,92.98,,1
2023-03-28 17:03:16.914,1680003196.914,,0.53771317,-0.18335883,0.42177776,1.8552603,0.5161955,-0.123843625,-0.25591284,0.37628347,1.0695729,-0.09578139,0.056793645,1.2178344,0.5443337,-0.45713365,0.1538994,1.2943034,-0.055893894,-0.95106786,-0.12006554,1.2915044,862.27106,850.18317,857.4359,775.2381,862.674,-0.05914306640625,0.15093994140625,0.9952392578125,-0.575714111328125,2.94586181640625,3.768310546875,1.0,1.0,1.0,1.0,2.0,92.98,,1
2023-03-28 17:03:16.917,1680003196.917,,0.53771317,-0.18335883,0.42177776,1.8552603,0.5161955,-0.123843625,-0.25591284,0.37628347,1.0695729,-0.09578139,0.056793645,1.2178344,0.5443337,-0.45713365,0.1538994,1.2943034,-0.055893894,-0.95106786,-0.12006554,1.2915044,863.8828,847.76556,855.82416,794.9817,890.87915,-0.05914306640625,0.15093994140625,0.9952392578125,-0.575714111328125,2.94586181640625,3.768310546875,1.0,1.0,1.0,1.0,2.0,92.98,,1
2023-03-28 17:03:16.919,1680003196.919,,0.53771317,-0.18335883,0.42177776,1.8552603,0.5161955,-0.123843625,-0.25591284,0.37628347,1.0695729,-0.09578139,0.056793645,1.2178344,0.5443337,-0.45713365,0.1538994,1.2943034,-0.055893894,-0.95106786,-0.12006554,1.2915044,848.5714,847.76556,853.8095,760.32965,871.53845,-0.05914306640625,0.15093994140625,0.9952392578125,-0.575714111328125,2.94586181640625,3.768310546875,1.0,1.0,1.0,1.0,2.0,92.98,,1
2023-03-28 17:03:16.928,1680003196.928,,0.53771317,-0.18335883,0.42177776,1.8552603,0.5161955,-0.123843625,-0.25591284,0.37628347,1.0695729,-0.09578139,0.07334074,1.2178344,0.5443337,-0.45713365,0.1538994,1.2943034,-0.055893894,-0.95106786,-0.12006554,1.2915044,848.5714,847.76556,853.8095,760.32965,871.53845,-0.05914306640625,0.15093994140625,0.9952392578125,-0.575714111328125,2.94586181640625,3.768310546875,1.0,1.0,1.0,1.0,2.0,92.98,,1
2023-03-28 17:03:16.930,1680003196.93,,0.53771317,-0.18335883,0.42177776,1.8552603,0.5161955,-0.123843625,-0.25591284,0.37628347,1.0695729,-0.09578139,0.07334074,1.2178344,0.54170036,-0.44148433,0.14238568,1.2943034,-0.055893894,-0.95106786,-0.12006554,1.2915044,848.5714,847.76556,853.8095,760.32965,871.53845,-0.05914306640625,0.15093994140625,0.9952392578125,-0.575714111328125,2.94586181640625,3.768310546875,1.0,1.0,1.0,1.0,2.0,92.98,,1
2023-03-28 17:03:16.931,1680003196.931,,0.49129236,-0.1776723,0.3975611,1.8552603,0.5161955,-0.123843625,-0.25591284,0.37628347,1.0695729,-0.09578139,0.07334074,1.2178344,0.54170036,-0.44148433,0.14238568,1.2943034,-0.055893894,-0.95106786,-0.12006554,1.2915044,848.5714,847.76556,853.8095,760.32965,871.53845,-0.05914306640625,0.15093994140625,0.9952392578125,-0.575714111328125,2.94586181640625,3.768310546875,1.0,1.0,1.0,1.0,2.0,92.98,,1
2023-03-28 17:03:16.933,1680003196.9329998,,0.49129236,-0.1776723,0.3975611,1.8552603,0.5140999,-0.11653673,-0.25520477,0.37628347,1.0695729,-0.09578139,0.07334074,1.2178344,0.54170036,-0.44148433,0.14238568,1.2943034,-0.055893894,-0.95106786,-0.12006554,1.2915044,848.5714,847.76556,853.8095,760.32965,871.53845,-0.05914306640625,0.15093994140625,0.9952392578125,-0.575714111328125,2.94586181640625,3.768310546875,1.0,1.0,1.0,1.0,2.0,92.98,,1
2023-03-28 17:03:16.934,1680003196.934,,0.49129236,-0.1776723,0.3975611,1.8552603,0.5140999,-0.11653673,-0.25520477,0.37628347,1.0695729,-0.09578139,0.07334074,1.2178344,0.54170036,-0.44148433,0.14238568,1.2943034,-0.06828895,-0.96075124,-0.1372264,1.2915044,848.5714,847.76556,853.8095,760.32965,871.53845,-0.05914306640625,0.15093994140625,0.9952392578125,-0.575714111328125,2.94586181640625,3.768310546875,1.0,1.0,1.0,1.0,2.0,92.98,,1
2023-03-28 17:03:16.920,1680003196.9199998,,0.49129236,-0.1776723,0.3975611,1.8552603,0.5140999,-0.11653673,-0.25520477,0.37628347,1.0695729,-0.09578139,0.07334074,1.2178344,0.54170036,-0.44148433,0.14238568,1.2943034,-0.06828895,-0.96075124,-0.1372264,1.2915044,840.9158,849.3773,853.8095,751.8681,870.7326,-0.05914306640625,0.15093994140625,0.9952392578125,-0.575714111328125,2.94586181640625,3.768310546875,1.0,1.0,1.0,1.0,2.0,92.98,,1
2023-03-28 17:03:16.937,1680003196.937,,0.49129236,-0.1776723,0.3975611,1.8552603,0.5140999,-0.11653673,-0.25520477,0.37628347,1.0695729,-0.09578139,0.07334074,1.2178344,0.54170036,-0.44148433,0.14238568,1.2943034,-0.06828895,-0.96075124,-0.1372264,1.2915044,849.7802,851.39197,853.8095,736.1539,860.2564,-0.05914306640625,0.15093994140625,0.9952392578125,-0.575714111328125,2.94586181640625,3.768310546875,1.0,1.0,1.0,1.0,2.0,92.98,,1
2023-03-28 17:03:16.938,1680003196.938,,0.49129236,-0.1776723,0.3975611,1.8552603,0.5140999,-0.11653673,-0.25520477,0.37628347,1.0695729,-0.09578139,0.07334074,1.2178344,0.54170036,-0.44148433,0.14238568,1.2943034,-0.06828895,-0.96075124,-0.1372264,1.2915044,865.89746,853.8095,851.79486,718.8278,846.9597,-0.05914306640625,0.15093994140625,0.9952392578125,-0.575714111328125,2.94586181640625,3.768310546875,1.0,1.0,1.0,1.0,2.0,92.98,,1
2023-03-28 17:03:16.940,1680003196.94,,0.49129236,-0.1776723,0.3975611,1.8552603,0.5140999,-0.11653673,-0.25520477,0.37628347,1.0695729,-0.09578139,0.07334074,1.2178344,0.54170036,-0.44148433,0.14238568,1.2943034,-0.06828895,-0.96075124,-0.1372264,1.2915044,865.89746,854.61536,854.61536,720.84247,851.79486,-0.05914306640625,0.15093994140625,0.9952392578125,-0.575714111328125,2.94586181640625,3.768310546875,1.0,1.0,1.0,1.0,2.0,92.98,,1
2023-03-28 17:03:16.941,1680003196.941,,0.49129236,-0.1776723,0.3975611,1.8552603,0.5140999,-0.11653673,-0.25520477,0.37628347,1.0695729,-0.09578139,0.07334074,1.2178344,0.54170036,-0.44148433,0.14238568,1.2943034,-0.06828895,-0.96075124,-0.1372264,1.2915044,853.00366,855.42126,858.24176,709.5604,848.5714,-0.05914306640625,0.15093994140625,0.9952392578125,-0.575714111328125,2.94586181640625,3.768310546875,1.0,1.0,1.0,1.0,2.0,92.98,,1
2023-03-28 17:03:16.943,1680003196.9429998,,0.49129236,-0.1776723,0.3975611,1.8552603,0.5140999,-0.11653673,-0.25520477,0.37628347,1.0695729,-0.09578139,0.07334074,1.2178344,0.54170036,-0.44148433,0.14238568,1.2943034,-0.06828895,-0.96075124,-0.1372264,1.2915044,850.989,855.42126,859.0476,717.2161,861.8681,-0.05914306640625,0.15093994140625,0.9952392578125,-0.575714111328125,2.94586181640625,3.768310546875,1.0,1.0,1.0,1.0,2.0,92.98,,1
2023-03-28 17:03:16.944,1680003196.944,,0.49129236,-0.1776723,0.3975611,1.8552603,0.5140999,-0.11653673,-0.25520477,0.37628347,1.0695729,-0.09578139,0.07334074,1.2178344,0.54170036,-0.44148433,0.14238568,1.2943034,-0.06828895,-0.96075124,-0.1372264,1.2915044,857.03296,854.21246,859.0476,720.0366,865.89746,-0.05914306640625,0.15093994140625,0.9952392578125,-0.575714111328125,2.94586181640625,3.768310546875,1.0,1.0,1.0,1.0,2.0,92.98,,1
2023-03-28 17:03:16.947,1680003196.947,,0.49129236,-0.1776723,0.3975611,1.8552603,0.5140999,-0.11653673,-0.25520477,0.37628347,1.0695729,-0.09578139,0.07334074,1.2178344,0.54170036,-0.44148433,0.14238568,1.2943034,-0.06828895,-0.96075124,-0.1372264,1.2915044,862.674,854.21246,859.45056,710.7692,854.61536,-0.05712890625,0.152587890625,0.99658203125,-0.441131591796875,2.370147705078125,3.581390380859375,1.0,1.0,1.0,1.0,2.0,92.98,,1
2023-03-28 17:03:16.948,1680003196.948,,0.49129236,-0.1776723,0.3975611,1.8552603,0.5140999,-0.11653673,-0.25520477,0.37628347,1.0695729,-0.09578139,0.07334074,1.2178344,0.54170036,-0.44148433,0.14238568,1.2943034,-0.06828895,-0.96075124,-0.1372264,1.2915044,862.27106,850.989,857.03296,693.8461,840.9158,-0.05712890625,0.152587890625,0.99658203125,-0.441131591796875,2.370147705078125,3.581390380859375,1.0,1.0,1.0,1.0,2.0,92.98,,1
2023-03-28 17:03:16.950,1680003196.95,,0.49129236,-0.1776723,0.3975611,1.8552603,0.5140999,-0.11653673,-0.25520477,0.37628347,1.0695729,-0.09578139,0.07334074,1.2178344,0.54170036,-0.44148433,0.14238568,1.2943034,-0.06828895,-0.96075124,-0.1372264,1.2915044,849.3773,848.97437,853.4066,703.91943,865.09155,-0.05712890625,0.152587890625,0.99658203125,-0.441131591796875,2.370147705078125,3.581390380859375,1.0,1.0,1.0,1.0,2.0,92.98,,1
2023-03-28 17:03:16.951,1680003196.951,,0.49129236,-0.1776723,0.3975611,1.8552603,0.5140999,-0.11653673,-0.25520477,0.37628347,1.0695729,-0.09578139,0.07334074,1.2178344,0.54170036,-0.44148433,0.14238568,1.2943034,-0.06828895,-0.96075124,-0.1372264,1.2915044,845.34796,853.00366,855.42126,709.15753,877.1795,-0.05712890625,0.152587890625,0.99658203125,-0.441131591796875,2.370147705078125,3.581390380859375,1.0,1.0,1.0,1.0,2.0,92.98,,1
2023-03-28 17:03:16.953,1680003196.953,,0.49129236,-0.1776723,0.3975611,1.8552603,0.5140999,-0.11653673,-0.25520477,0.37628347,1.0695729,-0.09578139,0.07334074,1.2178344,0.54170036,-0.44148433,0.14238568,1.2943034,-0.06828895,-0.96075124,-0.1372264,1.2915044,848.97437,852.6007,857.03296,709.5604,875.16486,-0.05712890625,0.152587890625,0.99658203125,-0.441131591796875,2.370147705078125,3.581390380859375,1.0,1.0,1.0,1.0,2.0,92.98,,1
2023-03-28 17:03:16.954,1680003196.954,,0.49129236,-0.1776723,0.3975611,1.8552603,0.5140999,-0.11653673,-0.25520477,0.37628347,1.0695729,-0.09578139,0.07334074,1.2178344,0.54170036,-0.44148433,0.14238568,1.2943034,-0.06828895,-0.96075124,-0.1372264,1.2915044,855.42126,851.39197,855.42126,737.3626,902.96704,-0.05712890625,0.152587890625,0.99658203125,-0.441131591796875,2.370147705078125,3.581390380859375,1.0,1.0,1.0,1.0,2.0,92.98,,1
2023-03-28 17:03:16.956,1680003196.956,,0.49129236,-0.1776723,0.3975611,1.8552603,0.5140999,-0.11653673,-0.25520477,0.37628347,1.0695729,-0.09578139,0.07334074,1.2178344,0.54170036,-0.44148433,0.14238568,1.2943034,-0.06828895,-0.96075124,-0.1372264,1.2915044,863.8828,853.00366,855.0183,720.4396,888.46155,-0.05712890625,0.152587890625,0.99658203125,-0.441131591796875,2.370147705078125,3.581390380859375,1.0,1.0,1.0,1.0,2.0,92.98,,1
2023-03-28 17:03:16.957,1680003196.957,,0.49129236,-0.1776723,0.3975611,1.8552603,0.5140999,-0.11653673,-0.25520477,0.37628347,1.0695729,-0.09578139,0.07334074,1.2178344,0.54170036,-0.44148433,0.14238568,1.2943034,-0.06828895,-0.96075124,-0.1372264,1.2915044,857.03296,855.42126,854.21246,670.4762,845.34796,-0.05712890625,0.152587890625,0.99658203125,-0.441131591796875,2.370147705078125,3.581390380859375,1.0,1.0,1.0,1.0,2.0,92.98,,1
2023-03-28 17:03:16.961,1680003196.961,,0.49129236,-0.1776723,0.3975611,1.8552603,0.5140999,-0.11653673,-0.25520477,0.37628347,1.0695729,-0.09578139,0.07334074,1.2178344,0.54170036,-0.44148433,0.14238568,1.2943034,-0.06828895,-0.96075124,-0.1372264,1.2915044,850.18317,855.0183,852.1978,656.3736,835.6777,-0.05712890625,0.152587890625,0.99658203125,-0.441131591796875,2.370147705078125,3.581390380859375,1.0,1.0,1.0,1.0,2.0,92.98,,1
2023-03-28 17:03:16.964,1680003196.964,,0.49129236,-0.1776723,0.3975611,1.8552603,0.5140999,-0.11653673,-0.25520477,0.37628347,1.0695729,-0.09578139,0.07334074,1.2178344,0.54170036,-0.44148433,0.14238568,1.2943034,-0.06828895,-0.96075124,-0.1372264,1.2915044,847.76556,852.6007,854.21246,674.5055,856.63007,-0.05712890625,0.152587890625,0.99658203125,-0.441131591796875,2.370147705078125,3.581390380859375,1.0,1.0,1.0,1.0,2.0,92.98,,1
2023-03-28 17:03:16.966,1680003196.9659998,,0.49129236,-0.1776723,0.3975611,1.8552603,0.5140999,-0.11653673,-0.25520477,0.37628347,1.0695729,-0.09578139,0.07334074,1.2178344,0.54170036,-0.44148433,0.14238568,1.2943034,-0.06828895,-0.96075124,-0.1372264,1.2915044,860.65936,852.1978,857.8388,713.1868,894.10254,-0.05712890625,0.152587890625,0.99658203125,-0.441131591796875,2.370147705078125,3.581390380859375,1.0,1.0,1.0,1.0,2.0,92.98,,1
2023-03-28 17:03:16.967,1680003196.967,,0.49129236,-0.1776723,0.3975611,1.8552603,0.5140999,-0.11653673,-0.25520477,0.37628347,1.0695729,-0.09578139,0.07334074,1.2178344,0.54170036,-0.44148433,0.14238568,1.2943034,-0.06828895,-0.96075124,-0.1372264,1.2915044,872.74725,853.00366,859.85345,701.0989,875.9707,-0.05712890625,0.152587890625,0.99658203125,-0.441131591796875,2.370147705078125,3.581390380859375,1.0,1.0,1.0,1.0,2.0,92.98,,1
2023-03-28 17:03:16.970,1680003196.97,,0.49129236,-0.1776723,0.3975611,1.8552603,0.5140999,-0.11653673,-0.25520477,0.37628347,1.0695729,-0.09578139,0.07334074,1.2178344,0.54170036,-0.44148433,0.14238568,1.2943034,-0.06828895,-0.96075124,-0.1372264,1.2915044,856.2271,852.1978,858.24176,653.95605,834.87177,-0.05877685546875,0.15191650390625,0.997802734375,-0.28411865234375,2.519683837890625,3.93280029296875,1.0,1.0,1.0,1.0,2.0,92.98,,1
2023-03-28 17:03:16.971,1680003196.971,,0.49129236,-0.1776723,0.3975611,1.8552603,0.5140999,-0.11653673,-0.25520477,0.37628347,1.0695729,-0.09578139,0.07334074,1.2178344,0.54170036,-0.44148433,0.14238568,1.2943034,-0.06828895,-0.96075124,-0.1372264,1.2915044,840.10986,851.39197,851.39197,619.304,801.02563,-0.05877685546875,0.15191650390625,0.997802734375,-0.28411865234375,2.519683837890625,3.93280029296875,1.0,1.0,1.0,1.0,2.0,92.98,,1
2023-03-28 17:03:16.973,1680003196.973,,0.49129236,-0.1776723,0.3975611,1.8552603,0.5140999,-0.11653673,-0.25520477,0.37628347,1.0695729,-0.09578139,0.07334074,1.2178344,0.54170036,-0.44148433,0.14238568,1.2943034,-0.06828895,-0.96075124,-0.1372264,1.2915044,846.1539,851.79486,852.6007,650.7326,828.022,-0.05877685546875,0.15191650390625,0.997802734375,-0.28411865234375,2.519683837890625,3.93280029296875,1.0,1.0,1.0,1.0,2.0,92.98,,1
2023-03-28 17:03:16.974,1680003196.974,,0.49129236,-0.1776723,0.3975611,1.8552603,0.5140999,-0.11653673,-0.25520477,0.37628347,1.0695729,-0.09578139,0.07334074,1.2178344,0.54170036,-0.44148433,0.14238568,1.2943034,-0.06828895,-0.96075124,-0.1372264,1.2915044,855.82416,853.00366,856.2271,708.3516,882.4176,-0.05877685546875,0.15191650390625,0.997802734375,-0.28411865234375,2.519683837890625,3.93280029296875,1.0,1.0,1.0,1.0,2.0,92.98,,1
2023-03-28 17:03:16.976,1680003196.976,,0.49129236,-0.1776723,0.3975611,1.8552603,0.5140999,-0.11653673,-0.25520477,0.37628347,1.0695729,-0.09578139,0.07334074,1.2178344,0.54170036,-0.44148433,0.14238568,1.2943034,-0.06828895,-0.96075124,-0.1372264,1.2915044,862.674,853.8095,855.0183,696.26373,871.53845,-0.05877685546875,0.15191650390625,0.997802734375,-0.28411865234375,2.519683837890625,3.93280029296875,1.0,1.0,1.0,1.0,2.0,92.98,,1
2023-03-28 17:03:16.977,1680003196.977,,0.49129236,-0.1776723,0.3975611,1.8552603,0.5140999,-0.11653673,-0.25520477,0.37628347,1.0695729,-0.09578139,0.07334074,1.2178344,0.54170036,-0.44148433,0.14238568,1.2943034,-0.06828895,-0.96075124,-0.1372264,1.2915044,853.8095,853.8095,857.03296,673.69965,857.4359,-0.05877685546875,0.15191650390625,0.997802734375,-0.28411865234375,2.519683837890625,3.93280029296875,1.0,1.0,1.0,1.0,2.0,92.98,,1
2023-03-28 17:03:16.979,1680003196.979,,0.49129236,-0.1776723,0.3975611,1.8552603,0.5140999,-0.11653673,-0.25520477,0.37628347,1.0695729,-0.09578139,0.07334074,1.2178344,0.54170036,-0.44148433,0.14238568,1.2943034,-0.06828895,-0.96075124,-0.1372264,1.2915044,835.6777,852.6007,856.2271,671.685,865.4945,-0.05877685546875,0.15191650390625,0.997802734375,-0.28411865234375,2.519683837890625,3.93280029296875,1.0,1.0,1.0,1.0,2.0,92.98,,1
2023-03-28 17:03:16.990,1680003196.99,,0.49129236,-0.1776723,0.3975611,1.8552603,0.5140999,-0.11653673,-0.25520477,0.37628347,1.0695729,-0.09578139,0.093900084,1.2178344,0.54170036,-0.44148433,0.14238568,1.2943034,-0.06828895,-0.96075124,-0.1372264,1.2915044,835.6777,852.6007,856.2271,671.685,865.4945,-0.05877685546875,0.15191650390625,0.997802734375,-0.28411865234375,2.519683837890625,3.93280029296875,1.0,1.0,1.0,1.0,2.0,92.98,,1
2023-03-28 17:03:16.992,1680003196.992,,0.49129236,-0.1776723,0.3975611,1.8552603,0.5140999,-0.11653673,-0.25520477,0.37628347,1.0695729,-0.09578139,0.093900084,1.2178344,0.55029446,-0.428002,0.12947832,1.2943034,-0.06828895,-0.96075124,-0.1372264,1.2915044,835.6777,852.6007,856.2271,671.685,865.4945,-0.05877685546875,0.15191650390625,0.997802734375,-0.28411865234375,2.519683837890625,3.93280029296875,1.0,1.0,1.0,1.0,2.0,92.98,,1
2023-03-28 17:03:16.993,1680003196.993,,0.4128866,-0.15567058,0.39473334,1.8552603,0.5140999,-0.11653673,-0.25520477,0.37628347,1.0695729,-0.09578139,0.093900084,1.2178344,0.55029446,-0.428002,0.12947832,1.2943034,-0.06828895,-0.96075124,-0.1372264,1.2915044,835.6777,852.6007,856.2271,671.685,865.4945,-0.05877685546875,0.15191650390625,0.997802734375,-0.28411865234375,2.519683837890625,3.93280029296875,1.0,1.0,1.0,1.0,2.0,92.98,,1
2023-03-28 17:03:16.996,1680003196.996,,0.4128866,-0.15567058,0.39473334,1.8552603,0.52504593,-0.11897904,-0.24455939,0.37628347,1.0695729,-0.09578139,0.093900084,1.2178344,0.55029446,-0.428002,0.12947832,1.2943034,-0.06828895,-0.96075124,-0.1372264,1.2915044,835.6777,852.6007,856.2271,671.685,865.4945,-0.05877685546875,0.15191650390625,0.997802734375,-0.28411865234375,2.519683837890625,3.93280029296875,1.0,1.0,1.0,1.0,2.0,92.98,,1
2023-03-28 17:03:16.998,1680003196.998,,0.4128866,-0.15567058,0.39473334,1.8552603,0.52504593,-0.11897904,-0.24455939,0.37628347,1.0695729,-0.09578139,0.093900084,1.2178344,0.55029446,-0.428002,0.12947832,1.2943034,-0.07025742,-0.9678248,-0.14785324,1.2915044,835.6777,852.6007,856.2271,671.685,865.4945,-0.05877685546875,0.15191650390625,0.997802734375,-0.28411865234375,2.519683837890625,3.93280029296875,1.0,1.0,1.0,1.0,2.0,92.98,,1
2023-03-28 17:03:16.981,1680003196.981,,0.4128866,-0.15567058,0.39473334,1.8552603,0.52504593,-0.11897904,-0.24455939,0.37628347,1.0695729,-0.09578139,0.093900084,1.2178344,0.55029446,-0.428002,0.12947832,1.2943034,-0.07025742,-0.9678248,-0.14785324,1.2915044,841.7216,845.7509,858.6447,660.80585,855.0183,-0.05877685546875,0.15191650390625,0.997802734375,-0.28411865234375,2.519683837890625,3.93280029296875,1.0,1.0,1.0,1.0,2.0,92.98,,1
2023-03-28 17:03:17.001,1680003197.001,,0.4128866,-0.15567058,0.39473334,1.8552603,0.52504593,-0.11897904,-0.24455939,0.37628347,1.0695729,-0.09578139,0.093900084,1.2178344,0.55029446,-0.428002,0.12947832,1.2943034,-0.07025742,-0.9678248,-0.14785324,1.2915044,869.12085,847.76556,859.45056,672.8938,854.61536,-0.05877685546875,0.15191650390625,0.997802734375,-0.28411865234375,2.519683837890625,3.93280029296875,1.0,1.0,1.0,1.0,2.0,92.98,,1
2023-03-28 17:03:17.002,1680003197.002,,0.4128866,-0.15567058,0.39473334,1.8552603,0.52504593,-0.11897904,-0.24455939,0.37628347,1.0695729,-0.09578139,0.093900084,1.2178344,0.55029446,-0.428002,0.12947832,1.2943034,-0.07025742,-0.9678248,-0.14785324,1.2915044,869.92676,857.03296,853.00366,695.4579,874.7619,-0.05877685546875,0.15191650390625,0.997802734375,-0.28411865234375,2.519683837890625,3.93280029296875,1.0,1.0,1.0,1.0,2.0,92.98,,1
2023-03-28 17:03:17.003,1680003197.003,,0.4128866,-0.15567058,0.39473334,1.8552603,0.52504593,-0.11897904,-0.24455939,0.37628347,1.0695729,-0.09578139,0.093900084,1.2178344,0.55029446,-0.428002,0.12947832,1.2943034,-0.07025742,-0.9678248,-0.14785324,1.2915044,850.989,858.24176,846.55676,664.83514,852.1978,-0.05877685546875,0.15191650390625,0.997802734375,-0.28411865234375,2.519683837890625,3.93280029296875,1.0,1.0,1.0,1.0,2.0,92.98,,1
2023-03-28 17:03:17.005,1680003197.005,,0.4128866,-0.15567058,0.39473334,1.8552603,0.52504593,-0.11897904,-0.24455939,0.37628347,1.0695729,-0.09578139,0.093900084,1.2178344,0.55029446,-0.428002,0.12947832,1.2943034,-0.07025742,-0.9678248,-0.14785324,1.2915044,844.5421,863.47986,841.7216,659.59705,852.6007,-0.05877685546875,0.15191650390625,0.997802734375,-0.28411865234375,2.519683837890625,3.93280029296875,1.0,1.0,1.0,1.0,2.0,92.98,,1
2023-03-28 17:03:17.007,1680003197.007,,0.4128866,-0.15567058,0.39473334,1.8552603,0.52504593,-0.11897904,-0.24455939,0.37628347,1.0695729,-0.09578139,0.093900084,1.2178344,0.55029446,-0.428002,0.12947832,1.2943034,-0.07025742,-0.9678248,-0.14785324,1.2915044,844.5421,865.09155,838.49817,647.50916,839.304,-0.060791015625,0.15277099609375,0.99810791015625,-0.6280517578125,3.117828369140625,3.282318115234375,1.0,1.0,1.0,1.0,2.0,92.98,,1
2023-03-28 17:03:17.008,1680003197.008,,0.4128866,-0.15567058,0.39473334,1.8552603,0.52504593,-0.11897904,-0.24455939,0.37628347,1.0695729,-0.09578139,0.093900084,1.2178344,0.55029446,-0.428002,0.12947832,1.2943034,-0.07025742,-0.9678248,-0.14785324,1.2915044,855.82416,867.50916,832.8571,643.0769,830.4396,-0.060791015625,0.15277099609375,0.99810791015625,-0.6280517578125,3.117828369140625,3.282318115234375,1.0,1.0,1.0,1.0,2.0,92.98,,1
2023-03-28 17:03:17.010,1680003197.01,,0.4128866,-0.15567058,0.39473334,1.8552603,0.52504593,-0.11897904,-0.24455939,0.37628347,1.0695729,-0.09578139,0.093900084,1.2178344,0.55029446,-0.428002,0.12947832,1.2943034,-0.07025742,-0.9678248,-0.14785324,1.2915044,861.8681,873.5531,826.4103,651.13556,836.8865,-0.060791015625,0.15277099609375,0.99810791015625,-0.6280517578125,3.117828369140625,3.282318115234375,1.0,1.0,1.0,1.0,2.0,92.98,,1
2023-03-28 17:03:17.011,1680003197.011,,0.4128866,-0.15567058,0.39473334,1.8552603,0.52504593,-0.11897904,-0.24455939,0.37628347,1.0695729,-0.09578139,0.093900084,1.2178344,0.55029446,-0.428002,0.12947832,1.2943034,-0.07025742,-0.9678248,-0.14785324,1.2915044,860.2564,875.16486,822.381,637.4359,830.4396,-0.060791015625,0.15277099609375,0.99810791015625,-0.6280517578125,3.117828369140625,3.282318115234375,1.0,1.0,1.0,1.0,2.0,92.98,,1
2023-03-28 17:03:17.013,1680003197.013,,0.4128866,-0.15567058,0.39473334,1.8552603,0.52504593,-0.11897904,-0.24455939,0.37628347,1.0695729,-0.09578139,0.093900084,1.2178344,0.55029446,-0.428002,0.12947832,1.2943034,-0.07025742,-0.9678248,-0.14785324,1.2915044,858.6447,879.19415,818.7546,653.5531,856.2271,-0.060791015625,0.15277099609375,0.99810791015625,-0.6280517578125,3.117828369140625,3.282318115234375,1.0,1.0,1.0,1.0,2.0,92.98,,1
2023-03-28 17:03:17.014,1680003197.014,,0.4128866,-0.15567058,0.39473334,1.8552603,0.52504593,-0.11897904,-0.24455939,0.37628347,1.0695729,-0.09578139,0.093900084,1.2178344,0.55029446,-0.428002,0.12947832,1.2943034,-0.07025742,-0.9678248,-0.14785324,1.2915044,855.42126,879.59705,817.5458,641.8681,842.52747,-0.060791015625,0.15277099609375,0.99810791015625,-0.6280517578125,3.117828369140625,3.282318115234375,1.0,1.0,1.0,1.0,2.0,92.98,,1
2023-03-28 17:03:17.015,1680003197.015,,0.4128866,-0.15567058,0.39473334,1.8552603,0.52504593,-0.11897904,-0.24455939,0.37628347,1.0695729,-0.09578139,0.093900084,1.2178344,0.55029446,-0.428002,0.12947832,1.2943034,-0.07025742,-0.9678248,-0.14785324,1.2915044,861.4652,878.7912,816.337,666.04395,863.0769,-0.060791015625,0.15277099609375,0.99810791015625,-0.6280517578125,3.117828369140625,3.282318115234375,1.0,1.0,1.0,1.0,2.0,92.98,,1
2023-03-28 17:03:17.017,1680003197.017,,0.4128866,-0.15567058,0.39473334,1.8552603,0.52504593,-0.11897904,-0.24455939,0.37628347,1.0695729,-0.09578139,0.093900084,1.2178344,0.55029446,-0.428002,0.12947832,1.2943034,-0.07025742,-0.9678248,-0.14785324,1.2915044,873.95605,879.59705,812.3077,654.35895,846.55676,-0.060791015625,0.15277099609375,0.99810791015625,-0.6280517578125,3.117828369140625,3.282318115234375,1.0,1.0,1.0,1.0,2.0,92.98,,1
2023-03-28 17:03:17.018,1680003197.018,,0.4128866,-0.15567058,0.39473334,1.8552603,0.52504593,-0.11897904,-0.24455939,0.37628347,1.0695729,-0.09578139,0.093900084,1.2178344,0.55029446,-0.428002,0.12947832,1.2943034,-0.07025742,-0.9678248,-0.14785324,1.2915044,875.16486,878.7912,814.3223,606.8132,801.02563,-0.060791015625,0.15277099609375,0.99810791015625,-0.6280517578125,3.117828369140625,3.282318115234375,1.0,1.0,1.0,1.0,2.0,92.98,,1
2023-03-28 17:03:17.019,1680003197.019,,0.4128866,-0.15567058,0.39473334,1.8552603,0.52504593,-0.11897904,-0.24455939,0.37628347,1.0695729,-0.09578139,0.093900084,1.2178344,0.55029446,-0.428002,0.12947832,1.2943034,-0.07025742,-0.9678248,-0.14785324,1.2915044,863.47986,876.77655,813.91943,618.49817,826.4103,-0.060791015625,0.15277099609375,0.99810791015625,-0.6280517578125,3.117828369140625,3.282318115234375,1.0,1.0,1.0,1.0,2.0,92.98,,1
2023-03-28 17:03:17.021,1680003197.021,,0.4128866,-0.15567058,0.39473334,1.8552603,0.52504593,-0.11897904,-0.24455939,0.37628347,1.0695729,-0.09578139,0.093900084,1.2178344,0.55029446,-0.428002,0.12947832,1.2943034,-0.07025742,-0.9678248,-0.14785324,1.2915044,862.27106,873.5531,814.3223,662.4176,868.315,-0.060791015625,0.15277099609375,0.99810791015625,-0.6280517578125,3.117828369140625,3.282318115234375,1.0,1.0,1.0,1.0,2.0,92.98,,1
2023-03-28 17:03:17.022,1680003197.0219998,,0.4128866,-0.15567058,0.39473334,1.8552603,0.52504593,-0.11897904,-0.24455939,0.37628347,1.0695729,-0.09578139,0.093900084,1.2178344,0.55029446,-0.428002,0.12947832,1.2943034,-0.07025742,-0.9678248,-0.14785324,1.2915044,872.3443,874.35895,819.15753,673.69965,869.92676,-0.060791015625,0.15277099609375,0.99810791015625,-0.6280517578125,3.117828369140625,3.282318115234375,1.0,1.0,1.0,1.0,2.0,92.98,,1
2023-03-28 17:03:17.023,1680003197.023,,0.4128866,-0.15567058,0.39473334,1.8552603,0.52504593,-0.11897904,-0.24455939,0.37628347,1.0695729,-0.09578139,0.093900084,1.2178344,0.55029446,-0.428002,0.12947832,1.2943034,-0.07025742,-0.9678248,-0.14785324,1.2915044,878.7912,872.74725,822.381,668.46155,860.2564,-0.06146240234375,0.1505126953125,0.99560546875,-0.37384033203125,2.811279296875,3.237457275390625,1.0,1.0,1.0,1.0,2.0,92.98,,1
2023-03-28 17:03:17.024,1680003197.024,,0.4128866,-0.15567058,0.39473334,1.8552603,0.52504593,-0.11897904,-0.24455939,0.37628347,1.0695729,-0.09578139,0.093900084,1.2178344,0.55029446,-0.428002,0.12947832,1.2943034,-0.07025742,-0.9678248,-0.14785324,1.2915044,871.9414,871.53845,821.5751,680.54944,879.59705,-0.06146240234375,0.1505126953125,0.99560546875,-0.37384033203125,2.811279296875,3.237457275390625,1.0,1.0,1.0,1.0,2.0,92.98,,1
2023-03-28 17:03:17.026,1680003197.026,,0.4128866,-0.15567058,0.39473334,1.8552603,0.52504593,-0.11897904,-0.24455939,0.37628347,1.0695729,-0.09578139,0.093900084,1.2178344,0.55029446,-0.428002,0.12947832,1.2943034,-0.07025742,-0.9678248,-0.14785324,1.2915044,861.4652,872.74725,817.5458,678.93774,889.67035,-0.06146240234375,0.1505126953125,0.99560546875,-0.37384033203125,2.811279296875,3.237457275390625,1.0,1.0,1.0,1.0,2.0,92.98,,1
2023-03-28 17:03:17.027,1680003197.027,,0.4128866,-0.15567058,0.39473334,1.8552603,0.52504593,-0.11897904,-0.24455939,0.37628347,1.0695729,-0.09578139,0.093900084,1.2178344,0.55029446,-0.428002,0.12947832,1.2943034,-0.07025742,-0.9678248,-0.14785324,1.2915044,855.42126,871.9414,818.3516,672.49084,877.98535,-0.06146240234375,0.1505126953125,0.99560546875,-0.37384033203125,2.811279296875,3.237457275390625,1.0,1.0,1.0,1.0,2.0,92.98,,1
2023-03-28 17:03:17.028,1680003197.028,,0.4128866,-0.15567058,0.39473334,1.8552603,0.52504593,-0.11897904,-0.24455939,0.37628347,1.0695729,-0.09578139,0.093900084,1.2178344,0.55029446,-0.428002,0.12947832,1.2943034,-0.07025742,-0.9678248,-0.14785324,1.2915044,860.65936,870.7326,822.7839,635.0183,828.8278,-0.06146240234375,0.1505126953125,0.99560546875,-0.37384033203125,2.811279296875,3.237457275390625,1.0,1.0,1.0,1.0,2.0,92.98,,1
2023-03-28 17:03:17.029,1680003197.029,,0.4128866,-0.15567058,0.39473334,1.8552603,0.52504593,-0.11897904,-0.24455939,0.37628347,1.0695729,-0.09578139,0.093900084,1.2178344,0.55029446,-0.428002,0.12947832,1.2943034,-0.07025742,-0.9678248,-0.14785324,1.2915044,867.50916,867.50916,826.8132,631.39197,817.9487,-0.06146240234375,0.1505126953125,0.99560546875,-0.37384033203125,2.811279296875,3.237457275390625,1.0,1.0,1.0,1.0,2.0,92.98,,1
2023-03-28 17:03:17.030,1680003197.03,,0.4128866,-0.15567058,0.39473334,1.8552603,0.52504593,-0.11897904,-0.24455939,0.37628347,1.0695729,-0.09578139,0.093900084,1.2178344,0.55029446,-0.428002,0.12947832,1.2943034,-0.07025742,-0.9678248,-0.14785324,1.2915044,865.09155,864.68866,829.2308,672.49084,865.4945,-0.06146240234375,0.1505126953125,0.99560546875,-0.37384033203125,2.811279296875,3.237457275390625,1.0,1.0,1.0,1.0,2.0,92.98,,1
2023-03-28 17:03:17.032,1680003197.032,,0.4128866,-0.15567058,0.39473334,1.8552603,0.52504593,-0.11897904,-0.24455939,0.37628347,1.0695729,-0.09578139,0.093900084,1.2178344,0.55029446,-0.428002,0.12947832,1.2943034,-0.07025742,-0.9678248,-0.14785324,1.2915044,855.42126,863.0769,829.2308,668.86444,869.5238,-0.06146240234375,0.1505126953125,0.99560546875,-0.37384033203125,2.811279296875,3.237457275390625,1.0,1.0,1.0,1.0,2.0,92.98,,1
2023-03-28 17:03:17.033,1680003197.033,,0.4128866,-0.15567058,0.39473334,1.8552603,0.52504593,-0.11897904,-0.24455939,0.37628347,1.0695729,-0.09578139,0.093900084,1.2178344,0.55029446,-0.428002,0.12947832,1.2943034,-0.07025742,-0.9678248,-0.14785324,1.2915044,851.39197,863.47986,828.8278,684.57874,884.83514,-0.06146240234375,0.1505126953125,0.99560546875,-0.37384033203125,2.811279296875,3.237457275390625,1.0,1.0,1.0,1.0,2.0,92.98,,1
2023-03-28 17:03:17.042,1680003197.042,,0.4128866,-0.15567058,0.39473334,1.8552603,0.52504593,-0.11897904,-0.24455939,0.37628347,1.0695729,-0.1073703,0.115221344,1.2178344,0.55029446,-0.428002,0.12947832,1.2943034,-0.07025742,-0.9678248,-0.14785324,1.2915044,851.39197,863.47986,828.8278,684.57874,884.83514,-0.06146240234375,0.1505126953125,0.99560546875,-0.37384033203125,2.811279296875,3.237457275390625,1.0,1.0,1.0,1.0,2.0,92.98,,1
2023-03-28 17:03:17.043,1680003197.043,,0.4128866,-0.15567058,0.39473334,1.8552603,0.52504593,-0.11897904,-0.24455939,0.37628347,1.0695729,-0.1073703,0.115221344,1.2178344,0.57664454,-0.4198084,0.115088746,1.2943034,-0.07025742,-0.9678248,-0.14785324,1.2915044,851.39197,863.47986,828.8278,684.57874,884.83514,-0.06146240234375,0.1505126953125,0.99560546875,-0.37384033203125,2.811279296875,3.237457275390625,1.0,1.0,1.0,1.0,2.0,92.98,,1
2023-03-28 17:03:17.045,1680003197.0449998,,0.3222538,-0.13952692,0.40556878,1.8552603,0.52504593,-0.11897904,-0.24455939,0.37628347,1.0695729,-0.1073703,0.115221344,1.2178344,0.57664454,-0.4198084,0.115088746,1.2943034,-0.07025742,-0.9678248,-0.14785324,1.2915044,851.39197,863.47986,828.8278,684.57874,884.83514,-0.06146240234375,0.1505126953125,0.99560546875,-0.37384033203125,2.811279296875,3.237457275390625,1.0,1.0,1.0,1.0,2.0,92.98,,1
2023-03-28 17:03:17.046,1680003197.046,,0.3222538,-0.13952692,0.40556878,1.8552603,0.56106114,-0.117865294,-0.22073728,0.37628347,1.0695729,-0.1073703,0.115221344,1.2178344,0.57664454,-0.4198084,0.115088746,1.2943034,-0.07025742,-0.9678248,-0.14785324,1.2915044,851.39197,863.47986,828.8278,684.57874,884.83514,-0.06146240234375,0.1505126953125,0.99560546875,-0.37384033203125,2.811279296875,3.237457275390625,1.0,1.0,1.0,1.0,2.0,92.98,,1
2023-03-28 17:03:17.047,1680003197.047,,0.3222538,-0.13952692,0.40556878,1.8552603,0.56106114,-0.117865294,-0.22073728,0.37628347,1.0695729,-0.1073703,0.115221344,1.2178344,0.57664454,-0.4198084,0.115088746,1.2943034,-0.0629918,-0.9733444,-0.15622221,1.2915044,851.39197,863.47986,828.8278,684.57874,884.83514,-0.06146240234375,0.1505126953125,0.99560546875,-0.37384033203125,2.811279296875,3.237457275390625,1.0,1.0,1.0,1.0,2.0,92.98,,1
2023-03-28 17:03:17.034,1680003197.034,,0.3222538,-0.13952692,0.40556878,1.8552603,0.56106114,-0.117865294,-0.22073728,0.37628347,1.0695729,-0.1073703,0.115221344,1.2178344,0.57664454,-0.4198084,0.115088746,1.2943034,-0.0629918,-0.9733444,-0.15622221,1.2915044,860.2564,865.4945,830.0366,686.1905,880.80585,-0.06146240234375,0.1505126953125,0.99560546875,-0.37384033203125,2.811279296875,3.237457275390625,1.0,1.0,1.0,1.0,2.0,92.98,,1
2023-03-28 17:03:17.050,1680003197.05,,0.3222538,-0.13952692,0.40556878,1.8552603,0.56106114,-0.117865294,-0.22073728,0.37628347,1.0695729,-0.1073703,0.115221344,1.2178344,0.57664454,-0.4198084,0.115088746,1.2943034,-0.0629918,-0.9733444,-0.15622221,1.2915044,872.74725,864.2857,834.4689,671.685,859.45056,-0.06146240234375,0.1505126953125,0.99560546875,-0.37384033203125,2.811279296875,3.237457275390625,1.0,1.0,1.0,1.0,2.0,92.98,,1
2023-03-28 17:03:17.051,1680003197.051,,0.3222538,-0.13952692,0.40556878,1.8552603,0.56106114,-0.117865294,-0.22073728,0.37628347,1.0695729,-0.1073703,0.115221344,1.2178344,0.57664454,-0.4198084,0.115088746,1.2943034,-0.0629918,-0.9733444,-0.15622221,1.2915044,873.5531,864.68866,835.6777,650.32965,844.94507,-0.06146240234375,0.1505126953125,0.99560546875,-0.37384033203125,2.811279296875,3.237457275390625,1.0,1.0,1.0,1.0,2.0,92.98,,1
2023-03-28 17:03:17.079,1680003197.079,,0.3222538,-0.13952692,0.40556878,1.8552603,0.56106114,-0.117865294,-0.22073728,0.37628347,1.0695729,-0.1073703,0.115221344,1.2178344,0.57664454,-0.4198084,0.115088746,1.2943034,-0.0629918,-0.9733444,-0.15622221,1.2915044,865.09155,866.7033,833.2601,634.21246,835.2747,-0.06146240234375,0.1505126953125,0.99560546875,-0.37384033203125,2.811279296875,3.237457275390625,1.0,1.0,1.0,1.0,2.0,92.98,,1
2023-03-28 17:03:17.081,1680003197.081,,0.3222538,-0.13952692,0.40556878,1.8552603,0.56106114,-0.117865294,-0.22073728,0.37628347,1.0695729,-0.1073703,0.115221344,1.2178344,0.57664454,-0.4198084,0.115088746,1.2943034,-0.0629918,-0.9733444,-0.15622221,1.2915044,857.8388,866.30035,834.4689,680.54944,870.7326,-0.06146240234375,0.1505126953125,0.99560546875,-0.37384033203125,2.811279296875,3.237457275390625,1.0,1.0,1.0,1.0,2.0,92.98,,1
2023-03-28 17:03:17.082,1680003197.082,,0.3222538,-0.13952692,0.40556878,1.8552603,0.56106114,-0.117865294,-0.22073728,0.37628347,1.0695729,-0.1073703,0.115221344,1.2178344,0.57664454,-0.4198084,0.115088746,1.2943034,-0.0629918,-0.9733444,-0.15622221,1.2915044,859.85345,865.09155,838.49817,686.1905,866.7033,-0.06146240234375,0.1505126953125,0.99560546875,-0.37384033203125,2.811279296875,3.237457275390625,1.0,1.0,1.0,1.0,2.0,92.98,,1
2023-03-28 17:03:17.083,1680003197.083,,0.3222538,-0.13952692,0.40556878,1.8552603,0.56106114,-0.117865294,-0.22073728,0.37628347,1.0695729,-0.1073703,0.115221344,1.2178344,0.57664454,-0.4198084,0.115088746,1.2943034,-0.0629918,-0.9733444,-0.15622221,1.2915044,867.1062,864.68866,836.4835,641.4652,811.9048,-0.06146240234375,0.1505126953125,0.99560546875,-0.37384033203125,2.811279296875,3.237457275390625,1.0,1.0,1.0,1.0,2.0,92.98,,1
2023-03-28 17:03:17.084,1680003197.084,,0.3222538,-0.13952692,0.40556878,1.8552603,0.56106114,-0.117865294,-0.22073728,0.37628347,1.0695729,-0.1073703,0.115221344,1.2178344,0.57664454,-0.4198084,0.115088746,1.2943034,-0.0629918,-0.9733444,-0.15622221,1.2915044,870.32965,864.68866,836.4835,645.4945,811.0989,-0.06146240234375,0.1505126953125,0.99560546875,-0.37384033203125,2.811279296875,3.237457275390625,1.0,1.0,1.0,1.0,2.0,92.98,,1
2023-03-28 17:03:17.086,1680003197.086,,0.3222538,-0.13952692,0.40556878,1.8552603,0.56106114,-0.117865294,-0.22073728,0.37628347,1.0695729,-0.1073703,0.115221344,1.2178344,0.57664454,-0.4198084,0.115088746,1.2943034,-0.0629918,-0.9733444,-0.15622221,1.2915044,855.0183,864.2857,841.31866,672.49084,845.34796,-0.06146240234375,0.1505126953125,0.99560546875,-0.37384033203125,2.811279296875,3.237457275390625,1.0,1.0,1.0,1.0,2.0,92.98,,1
2023-03-28 17:03:17.087,1680003197.087,,0.3222538,-0.13952692,0.40556878,1.8552603,0.56106114,-0.117865294,-0.22073728,0.37628347,1.0695729,-0.1073703,0.115221344,1.2178344,0.57664454,-0.4198084,0.115088746,1.2943034,-0.0629918,-0.9733444,-0.15622221,1.2915044,841.31866,863.8828,841.31866,671.28204,845.34796,-0.06146240234375,0.1505126953125,0.99560546875,-0.37384033203125,2.811279296875,3.237457275390625,1.0,1.0,1.0,1.0,2.0,92.98,,1
2023-03-28 17:03:17.088,1680003197.088,,0.3222538,-0.13952692,0.40556878,1.8552603,0.56106114,-0.117865294,-0.22073728,0.37628347,1.0695729,-0.1073703,0.115221344,1.2178344,0.57664454,-0.4198084,0.115088746,1.2943034,-0.0629918,-0.9733444,-0.15622221,1.2915044,845.7509,861.8681,842.1245,688.60803,853.8095,-0.06146240234375,0.1505126953125,0.99560546875,-0.37384033203125,2.811279296875,3.237457275390625,1.0,1.0,1.0,1.0,2.0,92.98,,1
2023-03-28 17:03:17.089,1680003197.089,,0.3222538,-0.13952692,0.40556878,1.8552603,0.56106114,-0.117865294,-0.22073728,0.37628347,1.0695729,-0.1073703,0.115221344,1.2178344,0.57664454,-0.4198084,0.115088746,1.2943034,-0.0629918,-0.9733444,-0.15622221,1.2915044,861.4652,861.06226,841.7216,704.7253,864.2857,-0.06146240234375,0.1505126953125,0.99560546875,-0.37384033203125,2.811279296875,3.237457275390625,1.0,1.0,1.0,1.0,2.0,92.98,,1
2023-03-28 17:03:17.090,1680003197.09,,0.3222538,-0.13952692,0.40556878,1.8552603,0.56106114,-0.117865294,-0.22073728,0.37628347,1.0695729,-0.1073703,0.115221344,1.2178344,0.57664454,-0.4198084,0.115088746,1.2943034,-0.0629918,-0.9733444,-0.15622221,1.2915044,869.12085,861.8681,841.31866,692.23444,856.63007,-0.06146240234375,0.1505126953125,0.99560546875,-0.37384033203125,2.811279296875,3.237457275390625,1.0,1.0,1.0,1.0,2.0,92.98,,1
2023-03-28 17:03:17.091,1680003197.0909998,,0.3222538,-0.13952692,0.40556878,1.8552603,0.56106114,-0.117865294,-0.22073728,0.37628347,1.0695729,-0.1073703,0.115221344,1.2178344,0.57664454,-0.4198084,0.115088746,1.2943034,-0.0629918,-0.9733444,-0.15622221,1.2915044,859.0476,865.09155,839.707,678.1319,845.7509,-0.06146240234375,0.1505126953125,0.99560546875,-0.37384033203125,2.811279296875,3.237457275390625,1.0,1.0,1.0,1.0,2.0,92.98,,1
2023-03-28 17:03:17.092,1680003197.092,,0.3222538,-0.13952692,0.40556878,1.8552603,0.56106114,-0.117865294,-0.22073728,0.37628347,1.0695729,-0.1073703,0.115221344,1.2178344,0.57664454,-0.4198084,0.115088746,1.2943034,-0.0629918,-0.9733444,-0.15622221,1.2915044,848.1685,865.4945,840.5128,700.696,867.50916,-0.06146240234375,0.1505126953125,0.99560546875,-0.37384033203125,2.811279296875,3.237457275390625,1.0,1.0,1.0,1.0,2.0,92.98,,1
2023-03-28 17:03:17.094,1680003197.094,,0.3222538,-0.13952692,0.40556878,1.8552603,0.56106114,-0.117865294,-0.22073728,0.37628347,1.0695729,-0.1073703,0.115221344,1.2178344,0.57664454,-0.4198084,0.115088746,1.2943034,-0.0629918,-0.9733444,-0.15622221,1.2915044,850.989,862.27106,841.31866,718.022,881.6117,-0.0615234375,0.1533203125,0.9969482421875,-0.2093505859375,2.833709716796875,3.4991455078125,1.0,1.0,1.0,1.0,2.0,92.98,,1
2023-03-28 17:03:17.095,1680003197.095,,0.3222538,-0.13952692,0.40556878,1.8552603,0.56106114,-0.117865294,-0.22073728,0.37628347,1.0695729,-0.1073703,0.115221344,1.2178344,0.57664454,-0.4198084,0.115088746,1.2943034,-0.0629918,-0.9733444,-0.15622221,1.2915044,866.7033,860.65936,841.31866,698.68134,856.2271,-0.0615234375,0.1533203125,0.9969482421875,-0.2093505859375,2.833709716796875,3.4991455078125,1.0,1.0,1.0,1.0,2.0,92.98,,1
2023-03-28 17:03:17.096,1680003197.096,,0.3222538,-0.13952692,0.40556878,1.8552603,0.56106114,-0.117865294,-0.22073728,0.37628347,1.0695729,-0.1073703,0.115221344,1.2178344,0.57664454,-0.4198084,0.115088746,1.2943034,-0.0629918,-0.9733444,-0.15622221,1.2915044,873.1502,859.45056,845.34796,697.8755,853.4066,-0.0615234375,0.1533203125,0.9969482421875,-0.2093505859375,2.833709716796875,3.4991455078125,1.0,1.0,1.0,1.0,2.0,92.98,,1
2023-03-28 17:03:17.097,1680003197.097,,0.3222538,-0.13952692,0.40556878,1.8552603,0.56106114,-0.117865294,-0.22073728,0.37628347,1.0695729,-0.1073703,0.115221344,1.2178344,0.57664454,-0.4198084,0.115088746,1.2943034,-0.0629918,-0.9733444,-0.15622221,1.2915044,866.30035,857.8388,847.76556,687.8022,849.7802,-0.0615234375,0.1533203125,0.9969482421875,-0.2093505859375,2.833709716796875,3.4991455078125,1.0,1.0,1.0,1.0,2.0,92.98,,1
2023-03-28 17:03:17.099,1680003197.099,,0.3222538,-0.13952692,0.40556878,1.8552603,0.56106114,-0.117865294,-0.22073728,0.37628347,1.0695729,-0.1073703,0.115221344,1.2178344,0.57664454,-0.4198084,0.115088746,1.2943034,-0.0629918,-0.9733444,-0.15622221,1.2915044,855.42126,855.82416,846.1539,713.9927,882.8205,-0.0615234375,0.1533203125,0.9969482421875,-0.2093505859375,2.833709716796875,3.4991455078125,1.0,1.0,1.0,1.0,2.0,92.98,,1
2023-03-28 17:03:17.100,1680003197.1,,0.3222538,-0.13952692,0.40556878,1.8552603,0.56106114,-0.117865294,-0.22073728,0.37628347,1.0695729,-0.1073703,0.115221344,1.2178344,0.57664454,-0.4198084,0.115088746,1.2943034,-0.0629918,-0.9733444,-0.15622221,1.2915044,850.989,855.0183,846.1539,715.2015,881.2088,-0.0615234375,0.1533203125,0.9969482421875,-0.2093505859375,2.833709716796875,3.4991455078125,1.0,1.0,1.0,1.0,2.0,92.98,,1
2023-03-28 17:03:17.102,1680003197.102,,0.3222538,-0.13952692,0.40556878,1.8552603,0.56106114,-0.117865294,-0.22073728,0.37628347,1.0695729,-0.1073703,0.115221344,1.2178344,0.57664454,-0.4198084,0.115088746,1.2943034,-0.0629918,-0.9733444,-0.15622221,1.2915044,857.8388,854.61536,846.1539,703.91943,866.7033,-0.0615234375,0.1533203125,0.9969482421875,-0.2093505859375,2.833709716796875,3.4991455078125,1.0,1.0,1.0,1.0,2.0,92.98,,1
2023-03-28 17:03:17.103,1680003197.103,,0.3222538,-0.13952692,0.40556878,1.8552603,0.56106114,-0.117865294,-0.22073728,0.37628347,1.0695729,-0.1073703,0.115221344,1.2178344,0.57664454,-0.4198084,0.115088746,1.2943034,-0.0629918,-0.9733444,-0.15622221,1.2915044,866.30035,854.61536,844.1392,681.75824,843.3333,-0.0615234375,0.1533203125,0.9969482421875,-0.2093505859375,2.833709716796875,3.4991455078125,1.0,1.0,1.0,1.0,2.0,92.98,,1
2023-03-28 17:03:17.104,1680003197.104,,0.3222538,-0.13952692,0.40556878,1.8552603,0.56106114,-0.117865294,-0.22073728,0.37628347,1.0695729,-0.1073703,0.115221344,1.2178344,0.57664454,-0.4198084,0.115088746,1.2943034,-0.0629918,-0.9733444,-0.15622221,1.2915044,860.65936,855.0183,843.73627,678.5348,840.5128,-0.0615234375,0.1533203125,0.9969482421875,-0.2093505859375,2.833709716796875,3.4991455078125,1.0,1.0,1.0,1.0,2.0,92.98,,1
2023-03-28 17:03:17.106,1680003197.106,,0.3222538,-0.13952692,0.40556878,1.8552603,0.56106114,-0.117865294,-0.22073728,0.37628347,1.0695729,-0.1073703,0.115221344,1.2178344,0.57664454,-0.4198084,0.115088746,1.2943034,-0.0629918,-0.9733444,-0.15622221,1.2915044,849.3773,855.0183,845.7509,689.81683,851.79486,-0.0615234375,0.1533203125,0.9969482421875,-0.2093505859375,2.833709716796875,3.4991455078125,1.0,1.0,1.0,1.0,2.0,92.98,,1
2023-03-28 17:03:17.107,1680003197.107,,0.3222538,-0.13952692,0.40556878,1.8552603,0.56106114,-0.117865294,-0.22073728,0.37628347,1.0695729,-0.1073703,0.115221344,1.2178344,0.57664454,-0.4198084,0.115088746,1.2943034,-0.0629918,-0.9733444,-0.15622221,1.2915044,851.39197,856.63007,847.3626,713.9927,872.3443,-0.0615234375,0.1533203125,0.9969482421875,-0.2093505859375,2.833709716796875,3.4991455078125,1.0,1.0,1.0,1.0,2.0,92.98,,1
2023-03-28 17:03:17.116,1680003197.116,,0.3222538,-0.13952692,0.40556878,1.8552603,0.56106114,-0.117865294,-0.22073728,0.37628347,1.0695729,-0.15083499,0.143241,1.2178344,0.57664454,-0.4198084,0.115088746,1.2943034,-0.0629918,-0.9733444,-0.15622221,1.2915044,851.39197,856.63007,847.3626,713.9927,872.3443,-0.0615234375,0.1533203125,0.9969482421875,-0.2093505859375,2.833709716796875,3.4991455078125,1.0,1.0,1.0,1.0,2.0,92.98,,1
2023-03-28 17:03:17.118,1680003197.118,,0.3222538,-0.13952692,0.40556878,1.8552603,0.56106114,-0.117865294,-0.22073728,0.37628347,1.0695729,-0.15083499,0.143241,1.2178344,0.6074776,-0.41613778,0.09927088,1.2943034,-0.0629918,-0.9733444,-0.15622221,1.2915044,851.39197,856.63007,847.3626,713.9927,872.3443,-0.0615234375,0.1533203125,0.9969482421875,-0.2093505859375,2.833709716796875,3.4991455078125,1.0,1.0,1.0,1.0,2.0,92.98,,1
2023-03-28 17:03:17.120,1680003197.12,,0.25672916,-0.08351619,0.45377493,1.8552603,0.56106114,-0.117865294,-0.22073728,0.37628347,1.0695729,-0.15083499,0.143241,1.2178344,0.6074776,-0.41613778,0.09927088,1.2943034,-0.0629918,-0.9733444,-0.15622221,1.2915044,851.39197,856.63007,847.3626,713.9927,872.3443,-0.0615234375,0.1533203125,0.9969482421875,-0.2093505859375,2.833709716796875,3.4991455078125,1.0,1.0,1.0,1.0,2.0,92.98,,1
2023-03-28 17:03:17.122,1680003197.122,,0.25672916,-0.08351619,0.45377493,1.8552603,0.6100047,-0.106959015,-0.17543198,0.37628347,1.0695729,-0.15083499,0.143241,1.2178344,0.6074776,-0.41613778,0.09927088,1.2943034,-0.0629918,-0.9733444,-0.15622221,1.2915044,851.39197,856.63007,847.3626,713.9927,872.3443,-0.0615234375,0.1533203125,0.9969482421875,-0.2093505859375,2.833709716796875,3.4991455078125,1.0,1.0,1.0,1.0,2.0,92.98,,1
2023-03-28 17:03:17.123,1680003197.123,,0.25672916,-0.08351619,0.45377493,1.8552603,0.6100047,-0.106959015,-0.17543198,0.37628347,1.0695729,-0.15083499,0.143241,1.2178344,0.6074776,-0.41613778,0.09927088,1.2943034,-0.057930235,-0.97971684,-0.17284067,1.2915044,851.39197,856.63007,847.3626,713.9927,872.3443,-0.0615234375,0.1533203125,0.9969482421875,-0.2093505859375,2.833709716796875,3.4991455078125,1.0,1.0,1.0,1.0,2.0,92.98,,1
2023-03-28 17:03:17.109,1680003197.109,,0.25672916,-0.08351619,0.45377493,1.8552603,0.6100047,-0.106959015,-0.17543198,0.37628347,1.0695729,-0.15083499,0.143241,1.2178344,0.6074776,-0.41613778,0.09927088,1.2943034,-0.057930235,-0.97971684,-0.17284067,1.2915044,856.2271,856.2271,846.9597,696.6667,848.1685,-0.0615234375,0.1533203125,0.9969482421875,-0.2093505859375,2.833709716796875,3.4991455078125,1.0,1.0,1.0,1.0,2.0,92.98,,1
2023-03-28 17:03:17.128,1680003197.128,,0.25672916,-0.08351619,0.45377493,1.8552603,0.6100047,-0.106959015,-0.17543198,0.37628347,1.0695729,-0.15083499,0.143241,1.2178344,0.6074776,-0.41613778,0.09927088,1.2943034,-0.057930235,-0.97971684,-0.17284067,1.2915044,863.47986,853.8095,847.76556,660.80585,809.0842,-0.05963134765625,0.15411376953125,0.99658203125,-0.35888671875,2.811279296875,4.246826171875,1.0,1.0,1.0,1.0,2.0,92.98,,1
2023-03-28 17:03:17.129,1680003197.129,,0.25672916,-0.08351619,0.45377493,1.8552603,0.6100047,-0.106959015,-0.17543198,0.37628347,1.0695729,-0.15083499,0.143241,1.2178344,0.6074776,-0.41613778,0.09927088,1.2943034,-0.057930235,-0.97971684,-0.17284067,1.2915044,857.4359,852.6007,846.1539,684.17584,838.9011,-0.05963134765625,0.15411376953125,0.99658203125,-0.35888671875,2.811279296875,4.246826171875,1.0,1.0,1.0,1.0,2.0,92.98,,1
2023-03-28 17:03:17.131,1680003197.131,,0.25672916,-0.08351619,0.45377493,1.8552603,0.6100047,-0.106959015,-0.17543198,0.37628347,1.0695729,-0.15083499,0.143241,1.2178344,0.6074776,-0.41613778,0.09927088,1.2943034,-0.057930235,-0.97971684,-0.17284067,1.2915044,849.7802,851.39197,845.7509,662.8205,819.5604,-0.05963134765625,0.15411376953125,0.99658203125,-0.35888671875,2.811279296875,4.246826171875,1.0,1.0,1.0,1.0,2.0,92.98,,1
2023-03-28 17:03:17.132,1680003197.132,,0.25672916,-0.08351619,0.45377493,1.8552603,0.6100047,-0.106959015,-0.17543198,0.37628347,1.0695729,-0.15083499,0.143241,1.2178344,0.6074776,-0.41613778,0.09927088,1.2943034,-0.057930235,-0.97971684,-0.17284067,1.2915044,847.76556,851.79486,850.989,675.7143,830.0366,-0.05963134765625,0.15411376953125,0.99658203125,-0.35888671875,2.811279296875,4.246826171875,1.0,1.0,1.0,1.0,2.0,92.98,,1
2023-03-28 17:03:17.134,1680003197.134,,0.25672916,-0.08351619,0.45377493,1.8552603,0.6100047,-0.106959015,-0.17543198,0.37628347,1.0695729,-0.15083499,0.143241,1.2178344,0.6074776,-0.41613778,0.09927088,1.2943034,-0.057930235,-0.97971684,-0.17284067,1.2915044,851.39197,853.00366,854.21246,743.8095,896.1172,-0.05963134765625,0.15411376953125,0.99658203125,-0.35888671875,2.811279296875,4.246826171875,1.0,1.0,1.0,1.0,2.0,92.98,,1
2023-03-28 17:03:17.135,1680003197.135,,0.25672916,-0.08351619,0.45377493,1.8552603,0.6100047,-0.106959015,-0.17543198,0.37628347,1.0695729,-0.15083499,0.143241,1.2178344,0.6074776,-0.41613778,0.09927088,1.2943034,-0.057930235,-0.97971684,-0.17284067,1.2915044,860.65936,853.8095,852.6007,725.6777,872.74725,-0.05963134765625,0.15411376953125,0.99658203125,-0.35888671875,2.811279296875,4.246826171875,1.0,1.0,1.0,1.0,2.0,92.98,,1
2023-03-28 17:03:17.136,1680003197.136,,0.25672916,-0.08351619,0.45377493,1.8552603,0.6100047,-0.106959015,-0.17543198,0.37628347,1.0695729,-0.15083499,0.143241,1.2178344,0.6074776,-0.41613778,0.09927088,1.2943034,-0.057930235,-0.97971684,-0.17284067,1.2915044,850.18317,855.82416,849.7802,649.5238,797.8022,-0.05963134765625,0.15411376953125,0.99658203125,-0.35888671875,2.811279296875,4.246826171875,1.0,1.0,1.0,1.0,2.0,92.98,,1
2023-03-28 17:03:17.137,1680003197.1369998,,0.25672916,-0.08351619,0.45377493,1.8552603,0.6100047,-0.106959015,-0.17543198,0.37628347,1.0695729,-0.15083499,0.143241,1.2178344,0.6074776,-0.41613778,0.09927088,1.2943034,-0.057930235,-0.97971684,-0.17284067,1.2915044,834.87177,854.21246,851.39197,655.16486,809.4872,-0.05963134765625,0.15411376953125,0.99658203125,-0.35888671875,2.811279296875,4.246826171875,1.0,1.0,1.0,1.0,2.0,92.98,,1
2023-03-28 17:03:17.138,1680003197.138,,0.25672916,-0.08351619,0.45377493,1.8552603,0.6100047,-0.106959015,-0.17543198,0.37628347,1.0695729,-0.15083499,0.143241,1.2178344,0.6074776,-0.41613778,0.09927088,1.2943034,-0.057930235,-0.97971684,-0.17284067,1.2915044,834.0659,850.989,853.00366,687.3993,839.304,-0.05963134765625,0.15411376953125,0.99658203125,-0.35888671875,2.811279296875,4.246826171875,1.0,1.0,1.0,1.0,2.0,92.98,,1
2023-03-28 17:03:17.139,1680003197.139,,0.25672916,-0.08351619,0.45377493,1.8552603,0.6100047,-0.106959015,-0.17543198,0.37628347,1.0695729,-0.15083499,0.143241,1.2178344,0.6074776,-0.41613778,0.09927088,1.2943034,-0.057930235,-0.97971684,-0.17284067,1.2915044,844.94507,851.79486,847.76556,706.337,858.6447,-0.05963134765625,0.15411376953125,0.99658203125,-0.35888671875,2.811279296875,4.246826171875,1.0,1.0,1.0,1.0,2.0,92.98,,1
2023-03-28 17:03:17.140,1680003197.14,,0.25672916,-0.08351619,0.45377493,1.8552603,0.6100047,-0.106959015,-0.17543198,0.37628347,1.0695729,-0.15083499,0.143241,1.2178344,0.6074776,-0.41613778,0.09927088,1.2943034,-0.057930235,-0.97971684,-0.17284067,1.2915044,857.8388,853.8095,847.3626,721.6484,870.32965,-0.05963134765625,0.15411376953125,0.99658203125,-0.35888671875,2.811279296875,4.246826171875,1.0,1.0,1.0,1.0,2.0,92.98,,1
2023-03-28 17:03:17.142,1680003197.142,,0.25672916,-0.08351619,0.45377493,1.8552603,0.6100047,-0.106959015,-0.17543198,0.37628347,1.0695729,-0.15083499,0.143241,1.2178344,0.6074776,-0.41613778,0.09927088,1.2943034,-0.057930235,-0.97971684,-0.17284067,1.2915044,857.03296,855.0183,852.6007,684.9817,830.0366,-0.05963134765625,0.15411376953125,0.99658203125,-0.35888671875,2.811279296875,4.246826171875,1.0,1.0,1.0,1.0,2.0,92.98,,1
2023-03-28 17:03:17.143,1680003197.143,,0.25672916,-0.08351619,0.45377493,1.8552603,0.6100047,-0.106959015,-0.17543198,0.37628347,1.0695729,-0.15083499,0.143241,1.2178344,0.6074776,-0.41613778,0.09927088,1.2943034,-0.057930235,-0.97971684,-0.17284067,1.2915044,842.9304,853.8095,854.61536,673.69965,827.619,-0.0626220703125,0.15313720703125,0.9967041015625,-0.127105712890625,2.452392578125,3.970184326171875,1.0,1.0,1.0,1.0,2.0,92.98,,1
2023-03-28 17:03:17.144,1680003197.144,,0.25672916,-0.08351619,0.45377493,1.8552603,0.6100047,-0.106959015,-0.17543198,0.37628347,1.0695729,-0.15083499,0.143241,1.2178344,0.6074776,-0.41613778,0.09927088,1.2943034,-0.057930235,-0.97971684,-0.17284067,1.2915044,839.707,851.79486,853.8095,721.6484,881.2088,-0.0626220703125,0.15313720703125,0.9967041015625,-0.127105712890625,2.452392578125,3.970184326171875,1.0,1.0,1.0,1.0,2.0,92.98,,1
2023-03-28 17:03:17.146,1680003197.146,,0.25672916,-0.08351619,0.45377493,1.8552603,0.6100047,-0.106959015,-0.17543198,0.37628347,1.0695729,-0.15083499,0.143241,1.2178344,0.6074776,-0.41613778,0.09927088,1.2943034,-0.057930235,-0.97971684,-0.17284067,1.2915044,855.0183,852.6007,850.18317,734.94507,890.4762,-0.0626220703125,0.15313720703125,0.9967041015625,-0.127105712890625,2.452392578125,3.970184326171875,1.0,1.0,1.0,1.0,2.0,92.98,,1
2023-03-28 17:03:17.147,1680003197.1469998,,0.25672916,-0.08351619,0.45377493,1.8552603,0.6100047,-0.106959015,-0.17543198,0.37628347,1.0695729,-0.15083499,0.143241,1.2178344,0.6074776,-0.41613778,0.09927088,1.2943034,-0.057930235,-0.97971684,-0.17284067,1.2915044,866.7033,851.79486,850.58606,707.1429,857.4359,-0.0626220703125,0.15313720703125,0.9967041015625,-0.127105712890625,2.452392578125,3.970184326171875,1.0,1.0,1.0,1.0,2.0,92.98,,1
2023-03-28 17:03:17.148,1680003197.148,,0.25672916,-0.08351619,0.45377493,1.8552603,0.6100047,-0.106959015,-0.17543198,0.37628347,1.0695729,-0.15083499,0.143241,1.2178344,0.6074776,-0.41613778,0.09927088,1.2943034,-0.057930235,-0.97971684,-0.17284067,1.2915044,859.0476,852.1978,854.61536,683.7729,838.0952,-0.0626220703125,0.15313720703125,0.9967041015625,-0.127105712890625,2.452392578125,3.970184326171875,1.0,1.0,1.0,1.0,2.0,92.98,,1
2023-03-28 17:03:17.149,1680003197.149,,0.25672916,-0.08351619,0.45377493,1.8552603,0.6100047,-0.106959015,-0.17543198,0.37628347,1.0695729,-0.15083499,0.143241,1.2178344,0.6074776,-0.41613778,0.09927088,1.2943034,-0.057930235,-0.97971684,-0.17284067,1.2915044,841.31866,855.0183,852.6007,665.64105,825.2015,-0.0626220703125,0.15313720703125,0.9967041015625,-0.127105712890625,2.452392578125,3.970184326171875,1.0,1.0,1.0,1.0,2.0,92.98,,1
2023-03-28 17:03:17.150,1680003197.15,,0.25672916,-0.08351619,0.45377493,1.8552603,0.6100047,-0.106959015,-0.17543198,0.37628347,1.0695729,-0.15083499,0.143241,1.2178344,0.6074776,-0.41613778,0.09927088,1.2943034,-0.057930235,-0.97971684,-0.17284067,1.2915044,840.10986,856.63007,850.58606,665.2381,827.619,-0.0626220703125,0.15313720703125,0.9967041015625,-0.127105712890625,2.452392578125,3.970184326171875,1.0,1.0,1.0,1.0,2.0,92.98,,1
2023-03-28 17:03:17.151,1680003197.151,,0.25672916,-0.08351619,0.45377493,1.8552603,0.6100047,-0.106959015,-0.17543198,0.37628347,1.0695729,-0.15083499,0.143241,1.2178344,0.6074776,-0.41613778,0.09927088,1.2943034,-0.057930235,-0.97971684,-0.17284067,1.2915044,848.1685,855.82416,850.18317,697.0696,860.2564,-0.0626220703125,0.15313720703125,0.9967041015625,-0.127105712890625,2.452392578125,3.970184326171875,1.0,1.0,1.0,1.0,2.0,92.98,,1
2023-03-28 17:03:17.153,1680003197.153,,0.25672916,-0.08351619,0.45377493,1.8552603,0.6100047,-0.106959015,-0.17543198,0.37628347,1.0695729,-0.15083499,0.143241,1.2178344,0.6074776,-0.41613778,0.09927088,1.2943034,-0.057930235,-0.97971684,-0.17284067,1.2915044,858.6447,853.4066,848.5714,703.5165,852.6007,-0.0626220703125,0.15313720703125,0.9967041015625,-0.127105712890625,2.452392578125,3.970184326171875,1.0,1.0,1.0,1.0,2.0,92.98,,1
2023-03-28 17:03:17.154,1680003197.154,,0.25672916,-0.08351619,0.45377493,1.8552603,0.6100047,-0.106959015,-0.17543198,0.37628347,1.0695729,-0.15083499,0.143241,1.2178344,0.6074776,-0.41613778,0.09927088,1.2943034,-0.057930235,-0.97971684,-0.17284067,1.2915044,861.4652,853.00366,850.18317,714.7985,861.06226,-0.0626220703125,0.15313720703125,0.9967041015625,-0.127105712890625,2.452392578125,3.970184326171875,1.0,1.0,1.0,1.0,2.0,92.98,,1
2023-03-28 17:03:17.155,1680003197.155,,0.25672916,-0.08351619,0.45377493,1.8552603,0.6100047,-0.106959015,-0.17543198,0.37628347,1.0695729,-0.15083499,0.143241,1.2178344,0.6074776,-0.41613778,0.09927088,1.2943034,-0.057930235,-0.97971684,-0.17284067,1.2915044,851.39197,855.42126,854.61536,684.57874,837.6923,-0.0626220703125,0.15313720703125,0.9967041015625,-0.127105712890625,2.452392578125,3.970184326171875,1.0,1.0,1.0,1.0,2.0,92.98,,1
2023-03-28 17:03:17.157,1680003197.157,,0.25672916,-0.08351619,0.45377493,1.8552603,0.6100047,-0.106959015,-0.17543198,0.37628347,1.0695729,-0.15083499,0.143241,1.2178344,0.6074776,-0.41613778,0.09927088,1.2943034,-0.057930235,-0.97971684,-0.17284067,1.2915044,836.8865,855.0183,851.39197,658.7912,811.50183,-0.0626220703125,0.15313720703125,0.9967041015625,-0.127105712890625,2.452392578125,3.970184326171875,1.0,1.0,1.0,1.0,2.0,92.98,,1
2023-03-28 17:03:17.184,1680003197.184,,0.25672916,-0.08351619,0.45377493,1.8552603,0.6100047,-0.106959015,-0.17543198,0.37628347,1.0695729,-0.15083499,0.143241,1.2178344,0.6074776,-0.41613778,0.09927088,1.2943034,-0.057930235,-0.97971684,-0.17284067,1.2915044,840.9158,853.4066,846.9597,690.2198,838.0952,-0.06298828125,0.15460205078125,0.997802734375,-0.28411865234375,2.235565185546875,3.99261474609375,1.0,1.0,1.0,1.0,2.0,92.98,,1
2023-03-28 17:03:17.192,1680003197.192,,0.25672916,-0.08351619,0.45377493,1.8552603,0.6100047,-0.106959015,-0.17543198,0.37628347,1.0695729,-0.051805604,0.21674205,1.2178344,0.6074776,-0.41613778,0.09927088,1.2943034,-0.057930235,-0.97971684,-0.17284067,1.2915044,840.9158,853.4066,846.9597,690.2198,838.0952,-0.06298828125,0.15460205078125,0.997802734375,-0.28411865234375,2.235565185546875,3.99261474609375,1.0,1.0,1.0,1.0,2.0,92.98,,1
2023-03-28 17:03:17.194,1680003197.194,,0.25672916,-0.08351619,0.45377493,1.8552603,0.6100047,-0.106959015,-0.17543198,0.37628347,1.0695729,-0.051805604,0.21674205,1.2178344,0.6252536,-0.41144162,0.08331448,1.2943034,-0.057930235,-0.97971684,-0.17284067,1.2915044,840.9158,853.4066,846.9597,690.2198,838.0952,-0.06298828125,0.15460205078125,0.997802734375,-0.28411865234375,2.235565185546875,3.99261474609375,1.0,1.0,1.0,1.0,2.0,92.98,,1
2023-03-28 17:03:17.195,1680003197.195,,0.23797691,0.04591488,0.5523374,1.8552603,0.6100047,-0.106959015,-0.17543198,0.37628347,1.0695729,-0.051805604,0.21674205,1.2178344,0.6252536,-0.41144162,0.08331448,1.2943034,-0.057930235,-0.97971684,-0.17284067,1.2915044,840.9158,853.4066,846.9597,690.2198,838.0952,-0.06298828125,0.15460205078125,0.997802734375,-0.28411865234375,2.235565185546875,3.99261474609375,1.0,1.0,1.0,1.0,2.0,92.98,,1
2023-03-28 17:03:17.197,1680003197.197,,0.23797691,0.04591488,0.5523374,1.8552603,0.65261763,-0.07558675,-0.060862575,0.37628347,1.0695729,-0.051805604,0.21674205,1.2178344,0.6252536,-0.41144162,0.08331448,1.2943034,-0.057930235,-0.97971684,-0.17284067,1.2915044,840.9158,853.4066,846.9597,690.2198,838.0952,-0.06298828125,0.15460205078125,0.997802734375,-0.28411865234375,2.235565185546875,3.99261474609375,1.0,1.0,1.0,1.0,2.0,92.98,,1
2023-03-28 17:03:17.198,1680003197.198,,0.23797691,0.04591488,0.5523374,1.8552603,0.65261763,-0.07558675,-0.060862575,0.37628347,1.0695729,-0.051805604,0.21674205,1.2178344,0.6252536,-0.41144162,0.08331448,1.2943034,-0.06465372,-0.98736554,-0.20075585,1.2915044,840.9158,853.4066,846.9597,690.2198,838.0952,-0.06298828125,0.15460205078125,0.997802734375,-0.28411865234375,2.235565185546875,3.99261474609375,1.0,1.0,1.0,1.0,2.0,92.98,,1
2023-03-28 17:03:17.185,1680003197.185,,0.23797691,0.04591488,0.5523374,1.8552603,0.65261763,-0.07558675,-0.060862575,0.37628347,1.0695729,-0.051805604,0.21674205,1.2178344,0.6252536,-0.41144162,0.08331448,1.2943034,-0.06465372,-0.98736554,-0.20075585,1.2915044,858.24176,854.61536,851.79486,716.8132,857.8388,-0.06298828125,0.15460205078125,0.997802734375,-0.28411865234375,2.235565185546875,3.99261474609375,1.0,1.0,1.0,1.0,2.0,92.98,,1
2023-03-28 17:03:17.201,1680003197.201,,0.23797691,0.04591488,0.5523374,1.8552603,0.65261763,-0.07558675,-0.060862575,0.37628347,1.0695729,-0.051805604,0.21674205,1.2178344,0.6252536,-0.41144162,0.08331448,1.2943034,-0.06465372,-0.98736554,-0.20075585,1.2915044,861.06226,855.42126,851.79486,715.2015,857.4359,-0.06298828125,0.15460205078125,0.997802734375,-0.28411865234375,2.235565185546875,3.99261474609375,1.0,1.0,1.0,1.0,2.0,92.98,,1
2023-03-28 17:03:17.202,1680003197.202,,0.23797691,0.04591488,0.5523374,1.8552603,0.65261763,-0.07558675,-0.060862575,0.37628347,1.0695729,-0.051805604,0.21674205,1.2178344,0.6252536,-0.41144162,0.08331448,1.2943034,-0.06465372,-0.98736554,-0.20075585,1.2915044,850.58606,855.42126,850.989,705.5311,859.45056,-0.06298828125,0.15460205078125,0.997802734375,-0.28411865234375,2.235565185546875,3.99261474609375,1.0,1.0,1.0,1.0,2.0,92.98,,1
2023-03-28 17:03:17.203,1680003197.203,,0.23797691,0.04591488,0.5523374,1.8552603,0.65261763,-0.07558675,-0.060862575,0.37628347,1.0695729,-0.051805604,0.21674205,1.2178344,0.6252536,-0.41144162,0.08331448,1.2943034,-0.06465372,-0.98736554,-0.20075585,1.2915044,843.3333,853.4066,852.1978,700.293,855.42126,-0.06298828125,0.15460205078125,0.997802734375,-0.28411865234375,2.235565185546875,3.99261474609375,1.0,1.0,1.0,1.0,2.0,92.98,,1
2023-03-28 17:03:17.204,1680003197.204,,0.23797691,0.04591488,0.5523374,1.8552603,0.65261763,-0.07558675,-0.060862575,0.37628347,1.0695729,-0.051805604,0.21674205,1.2178344,0.6252536,-0.41144162,0.08331448,1.2943034,-0.06465372,-0.98736554,-0.20075585,1.2915044,849.7802,851.39197,853.8095,707.5458,855.42126,-0.06298828125,0.15460205078125,0.997802734375,-0.28411865234375,2.235565185546875,3.99261474609375,1.0,1.0,1.0,1.0,2.0,92.98,,1
2023-03-28 17:03:17.205,1680003197.205,,0.23797691,0.04591488,0.5523374,1.8552603,0.65261763,-0.07558675,-0.060862575,0.37628347,1.0695729,-0.051805604,0.21674205,1.2178344,0.6252536,-0.41144162,0.08331448,1.2943034,-0.06465372,-0.98736554,-0.20075585,1.2915044,863.47986,851.79486,854.21246,702.71063,844.94507,-0.06298828125,0.15460205078125,0.997802734375,-0.28411865234375,2.235565185546875,3.99261474609375,1.0,1.0,1.0,1.0,2.0,92.98,,1
2023-03-28 17:03:17.206,1680003197.206,,0.23797691,0.04591488,0.5523374,1.8552603,0.65261763,-0.07558675,-0.060862575,0.37628347,1.0695729,-0.051805604,0.21674205,1.2178344,0.6252536,-0.41144162,0.08331448,1.2943034,-0.06465372,-0.98736554,-0.20075585,1.2915044,866.30035,851.39197,853.4066,685.78754,823.5897,-0.06298828125,0.15460205078125,0.997802734375,-0.28411865234375,2.235565185546875,3.99261474609375,1.0,1.0,1.0,1.0,2.0,92.98,,1
2023-03-28 17:03:17.208,1680003197.208,,0.23797691,0.04591488,0.5523374,1.8552603,0.65261763,-0.07558675,-0.060862575,0.37628347,1.0695729,-0.051805604,0.21674205,1.2178344,0.6252536,-0.41144162,0.08331448,1.2943034,-0.06465372,-0.98736554,-0.20075585,1.2915044,849.7802,849.7802,852.1978,704.3223,849.7802,-0.06298828125,0.15460205078125,0.997802734375,-0.28411865234375,2.235565185546875,3.99261474609375,1.0,1.0,1.0,1.0,2.0,92.98,,1
2023-03-28 17:03:17.209,1680003197.209,,0.23797691,0.04591488,0.5523374,1.8552603,0.65261763,-0.07558675,-0.060862575,0.37628347,1.0695729,-0.051805604,0.21674205,1.2178344,0.6252536,-0.41144162,0.08331448,1.2943034,-0.06465372,-0.98736554,-0.20075585,1.2915044,838.9011,850.989,850.58606,695.05493,853.4066,-0.06298828125,0.15460205078125,0.997802734375,-0.28411865234375,2.235565185546875,3.99261474609375,1.0,1.0,1.0,1.0,2.0,92.98,,1
2023-03-28 17:03:17.210,1680003197.21,,0.23797691,0.04591488,0.5523374,1.8552603,0.65261763,-0.07558675,-0.060862575,0.37628347,1.0695729,-0.051805604,0.21674205,1.2178344,0.6252536,-0.41144162,0.08331448,1.2943034,-0.06465372,-0.98736554,-0.20075585,1.2915044,843.3333,850.989,851.79486,701.50183,851.79486,-0.06298828125,0.15460205078125,0.997802734375,-0.28411865234375,2.235565185546875,3.99261474609375,1.0,1.0,1.0,1.0,2.0,92.98,,1
2023-03-28 17:03:17.211,1680003197.211,,0.23797691,0.04591488,0.5523374,1.8552603,0.65261763,-0.07558675,-0.060862575,0.37628347,1.0695729,-0.051805604,0.21674205,1.2178344,0.6252536,-0.41144162,0.08331448,1.2943034,-0.06465372,-0.98736554,-0.20075585,1.2915044,853.4066,851.39197,852.1978,717.619,855.42126,-0.06298828125,0.15460205078125,0.997802734375,-0.28411865234375,2.235565185546875,3.99261474609375,1.0,1.0,1.0,1.0,2.0,92.98,,1
2023-03-28 17:03:17.213,1680003197.213,,0.23797691,0.04591488,0.5523374,1.8552603,0.65261763,-0.07558675,-0.060862575,0.37628347,1.0695729,-0.051805604,0.21674205,1.2178344,0.6252536,-0.41144162,0.08331448,1.2943034,-0.06465372,-0.98736554,-0.20075585,1.2915044,862.674,852.6007,853.8095,718.8278,855.42126,-0.06298828125,0.15460205078125,0.997802734375,-0.28411865234375,2.235565185546875,3.99261474609375,1.0,1.0,1.0,1.0,2.0,92.98,,1
2023-03-28 17:03:17.214,1680003197.214,,0.23797691,0.04591488,0.5523374,1.8552603,0.65261763,-0.07558675,-0.060862575,0.37628347,1.0695729,-0.051805604,0.21674205,1.2178344,0.6252536,-0.41144162,0.08331448,1.2943034,-0.06465372,-0.98736554,-0.20075585,1.2915044,851.39197,854.21246,854.61536,741.39197,890.07324,-0.06298828125,0.15460205078125,0.997802734375,-0.28411865234375,2.235565185546875,3.99261474609375,1.0,1.0,1.0,1.0,2.0,92.98,,1
2023-03-28 17:03:17.215,1680003197.215,,0.23797691,0.04591488,0.5523374,1.8552603,0.65261763,-0.07558675,-0.060862575,0.37628347,1.0695729,-0.051805604,0.21674205,1.2178344,0.6252536,-0.41144162,0.08331448,1.2943034,-0.06465372,-0.98736554,-0.20075585,1.2915044,840.5128,854.61536,851.79486,692.6374,846.1539,-0.06298828125,0.15460205078125,0.997802734375,-0.28411865234375,2.235565185546875,3.99261474609375,1.0,1.0,1.0,1.0,2.0,92.98,,1
2023-03-28 17:03:17.216,1680003197.2159998,,0.23797691,0.04591488,0.5523374,1.8552603,0.65261763,-0.07558675,-0.060862575,0.37628347,1.0695729,-0.051805604,0.21674205,1.2178344,0.6252536,-0.41144162,0.08331448,1.2943034,-0.06465372,-0.98736554,-0.20075585,1.2915044,844.5421,854.21246,850.989,681.75824,825.2015,-0.06298828125,0.15460205078125,0.997802734375,-0.28411865234375,2.235565185546875,3.99261474609375,1.0,1.0,1.0,1.0,2.0,92.98,,1
2023-03-28 17:03:17.217,1680003197.217,,0.23797691,0.04591488,0.5523374,1.8552603,0.65261763,-0.07558675,-0.060862575,0.37628347,1.0695729,-0.051805604,0.21674205,1.2178344,0.6252536,-0.41144162,0.08331448,1.2943034,-0.06465372,-0.98736554,-0.20075585,1.2915044,853.00366,853.8095,851.79486,721.6484,857.03296,-0.06298828125,0.15460205078125,0.997802734375,-0.28411865234375,2.235565185546875,3.99261474609375,1.0,1.0,1.0,1.0,2.0,92.98,,1
2023-03-28 17:03:17.218,1680003197.218,,0.23797691,0.04591488,0.5523374,1.8552603,0.65261763,-0.07558675,-0.060862575,0.37628347,1.0695729,-0.051805604,0.21674205,1.2178344,0.6252536,-0.41144162,0.08331448,1.2943034,-0.06465372,-0.98736554,-0.20075585,1.2915044,860.2564,853.4066,851.79486,706.337,838.9011,-0.06298828125,0.15460205078125,0.997802734375,-0.28411865234375,2.235565185546875,3.99261474609375,1.0,1.0,1.0,1.0,2.0,92.98,,1
2023-03-28 17:03:17.220,1680003197.22,,0.23797691,0.04591488,0.5523374,1.8552603,0.65261763,-0.07558675,-0.060862575,0.37628347,1.0695729,-0.051805604,0.21674205,1.2178344,0.6252536,-0.41144162,0.08331448,1.2943034,-0.06465372,-0.98736554,-0.20075585,1.2915044,857.03296,851.39197,851.79486,700.696,844.1392,-0.06298828125,0.15460205078125,0.997802734375,-0.28411865234375,2.235565185546875,3.99261474609375,1.0,1.0,1.0,1.0,2.0,92.98,,1
2023-03-28 17:03:17.221,1680003197.221,,0.23797691,0.04591488,0.5523374,1.8552603,0.65261763,-0.07558675,-0.060862575,0.37628347,1.0695729,-0.051805604,0.21674205,1.2178344,0.6252536,-0.41144162,0.08331448,1.2943034,-0.06465372,-0.98736554,-0.20075585,1.2915044,845.34796,848.97437,851.39197,713.1868,864.2857,-0.06298828125,0.15460205078125,0.997802734375,-0.28411865234375,2.235565185546875,3.99261474609375,1.0,1.0,1.0,1.0,2.0,92.98,,1
2023-03-28 17:03:17.222,1680003197.222,,0.23797691,0.04591488,0.5523374,1.8552603,0.65261763,-0.07558675,-0.060862575,0.37628347,1.0695729,-0.051805604,0.21674205,1.2178344,0.6252536,-0.41144162,0.08331448,1.2943034,-0.06465372,-0.98736554,-0.20075585,1.2915044,841.31866,848.1685,849.7802,719.6337,859.0476,-0.06298828125,0.15460205078125,0.997802734375,-0.28411865234375,2.235565185546875,3.99261474609375,1.0,1.0,1.0,1.0,2.0,92.98,,1
2023-03-28 17:03:17.224,1680003197.224,,0.23797691,0.04591488,0.5523374,1.8552603,0.65261763,-0.07558675,-0.060862575,0.37628347,1.0695729,-0.051805604,0.21674205,1.2178344,0.6252536,-0.41144162,0.08331448,1.2943034,-0.06465372,-0.98736554,-0.20075585,1.2915044,856.2271,851.79486,847.3626,703.5165,834.4689,-0.06298828125,0.15460205078125,0.997802734375,-0.28411865234375,2.235565185546875,3.99261474609375,1.0,1.0,1.0,1.0,2.0,92.98,,1
2023-03-28 17:03:17.225,1680003197.225,,0.23797691,0.04591488,0.5523374,1.8552603,0.65261763,-0.07558675,-0.060862575,0.37628347,1.0695729,-0.051805604,0.21674205,1.2178344,0.6252536,-0.41144162,0.08331448,1.2943034,-0.06465372,-0.98736554,-0.20075585,1.2915044,864.68866,856.2271,846.55676,689.41394,818.3516,-0.06298828125,0.15460205078125,0.997802734375,-0.28411865234375,2.235565185546875,3.99261474609375,1.0,1.0,1.0,1.0,2.0,92.98,,1
2023-03-28 17:03:17.226,1680003197.226,,0.23797691,0.04591488,0.5523374,1.8552603,0.65261763,-0.07558675,-0.060862575,0.37628347,1.0695729,-0.051805604,0.21674205,1.2178344,0.6252536,-0.41144162,0.08331448,1.2943034,-0.06465372,-0.98736554,-0.20075585,1.2915044,856.2271,856.63007,847.76556,741.39197,879.19415,-0.06298828125,0.15460205078125,0.997802734375,-0.28411865234375,2.235565185546875,3.99261474609375,1.0,1.0,1.0,1.0,2.0,92.98,,1
2023-03-28 17:03:17.263,1680003197.263,,0.23797691,0.04591488,0.5523374,1.8552603,0.65261763,-0.07558675,-0.060862575,0.37628347,1.0695729,-0.051805604,0.21674205,1.2178344,0.6252536,-0.41144162,0.08331448,1.2943034,-0.06465372,-0.98736554,-0.20075585,1.2915044,846.55676,858.24176,845.34796,749.0476,894.90845,-0.06048583984375,0.1541748046875,0.99749755859375,-0.485992431640625,2.34771728515625,4.029998779296875,1.0,1.0,1.0,1.0,2.0,92.98,,1
2023-03-28 17:03:17.265,1680003197.265,,0.23797691,0.04591488,0.5523374,1.8552603,0.65261763,-0.07558675,-0.060862575,0.37628347,1.0695729,-0.051805604,0.21674205,1.2178344,0.6252536,-0.41144162,0.08331448,1.2943034,-0.06465372,-0.98736554,-0.20075585,1.2915044,849.3773,858.24176,846.9597,719.2308,857.8388,-0.06048583984375,0.1541748046875,0.99749755859375,-0.485992431640625,2.34771728515625,4.029998779296875,1.0,1.0,1.0,1.0,2.0,92.98,,1
2023-03-28 17:03:17.268,1680003197.268,,0.23797691,0.04591488,0.5523374,1.8552603,0.65261763,-0.07558675,-0.060862575,0.37628347,1.0695729,-0.051805604,0.21674205,1.2178344,0.6252536,-0.41144162,0.08331448,1.2943034,-0.06465372,-0.98736554,-0.20075585,1.2915044,867.50916,858.6447,846.55676,750.2564,882.4176,-0.06048583984375,0.1541748046875,0.99749755859375,-0.485992431640625,2.34771728515625,4.029998779296875,1.0,1.0,1.0,1.0,2.0,92.98,,1
2023-03-28 17:03:17.290,1680003197.29,,0.23797691,0.04591488,0.5523374,1.8552603,0.65261763,-0.07558675,-0.060862575,0.37628347,1.0695729,0.17746799,0.38599983,1.2178344,0.6252536,-0.41144162,0.08331448,1.2943034,-0.06465372,-0.98736554,-0.20075585,1.2915044,867.50916,858.6447,846.55676,750.2564,882.4176,-0.06048583984375,0.1541748046875,0.99749755859375,-0.485992431640625,2.34771728515625,4.029998779296875,1.0,1.0,1.0,1.0,2.0,92.98,,1
2023-03-28 17:03:17.292,1680003197.292,,0.23797691,0.04591488,0.5523374,1.8552603,0.65261763,-0.07558675,-0.060862575,0.37628347,1.0695729,0.17746799,0.38599983,1.2178344,0.62305117,-0.40249342,0.06782865,1.2943034,-0.06465372,-0.98736554,-0.20075585,1.2915044,867.50916,858.6447,846.55676,750.2564,882.4176,-0.06048583984375,0.1541748046875,0.99749755859375,-0.485992431640625,2.34771728515625,4.029998779296875,1.0,1.0,1.0,1.0,2.0,92.98,,1
2023-03-28 17:03:17.293,1680003197.293,,0.2644107,0.22356164,0.68815064,1.8552603,0.65261763,-0.07558675,-0.060862575,0.37628347,1.0695729,0.17746799,0.38599983,1.2178344,0.62305117,-0.40249342,0.06782865,1.2943034,-0.06465372,-0.98736554,-0.20075585,1.2915044,867.50916,858.6447,846.55676,750.2564,882.4176,-0.06048583984375,0.1541748046875,0.99749755859375,-0.485992431640625,2.34771728515625,4.029998779296875,1.0,1.0,1.0,1.0,2.0,92.98,,1
2023-03-28 17:03:17.295,1680003197.2949998,,0.2644107,0.22356164,0.68815064,1.8552603,0.6786526,-0.020553699,0.11122173,0.37628347,1.0695729,0.17746799,0.38599983,1.2178344,0.62305117,-0.40249342,0.06782865,1.2943034,-0.06465372,-0.98736554,-0.20075585,1.2915044,867.50916,858.6447,846.55676,750.2564,882.4176,-0.06048583984375,0.1541748046875,0.99749755859375,-0.485992431640625,2.34771728515625,4.029998779296875,1.0,1.0,1.0,1.0,2.0,92.98,,1
2023-03-28 17:03:17.296,1680003197.296,,0.2644107,0.22356164,0.68815064,1.8552603,0.6786526,-0.020553699,0.11122173,0.37628347,1.0695729,0.17746799,0.38599983,1.2178344,0.62305117,-0.40249342,0.06782865,1.2943034,-0.084826104,-0.9935221,-0.23300001,1.2915044,867.50916,858.6447,846.55676,750.2564,882.4176,-0.06048583984375,0.1541748046875,0.99749755859375,-0.485992431640625,2.34771728515625,4.029998779296875,1.0,1.0,1.0,1.0,2.0,92.98,,1
2023-03-28 17:03:17.272,1680003197.2719998,,0.2644107,0.22356164,0.68815064,1.8552603,0.6786526,-0.020553699,0.11122173,0.37628347,1.0695729,0.17746799,0.38599983,1.2178344,0.62305117,-0.40249342,0.06782865,1.2943034,-0.084826104,-0.9935221,-0.23300001,1.2915044,882.4176,860.2564,844.94507,726.08057,856.2271,-0.06048583984375,0.1541748046875,0.99749755859375,-0.485992431640625,2.34771728515625,4.029998779296875,1.0,1.0,1.0,1.0,2.0,92.98,,1
2023-03-28 17:03:17.299,1680003197.299,,0.2644107,0.22356164,0.68815064,1.8552603,0.6786526,-0.020553699,0.11122173,0.37628347,1.0695729,0.17746799,0.38599983,1.2178344,0.62305117,-0.40249342,0.06782865,1.2943034,-0.084826104,-0.9935221,-0.23300001,1.2915044,882.01465,860.65936,844.94507,674.10254,808.68134,-0.06048583984375,0.1541748046875,0.99749755859375,-0.485992431640625,2.34771728515625,4.029998779296875,1.0,1.0,1.0,1.0,2.0,92.98,,1
2023-03-28 17:03:17.301,1680003197.301,,0.2644107,0.22356164,0.68815064,1.8552603,0.6786526,-0.020553699,0.11122173,0.37628347,1.0695729,0.17746799,0.38599983,1.2178344,0.62305117,-0.40249342,0.06782865,1.2943034,-0.084826104,-0.9935221,-0.23300001,1.2915044,871.53845,859.85345,845.7509,701.9048,841.31866,-0.06048583984375,0.1541748046875,0.99749755859375,-0.485992431640625,2.34771728515625,4.029998779296875,1.0,1.0,1.0,1.0,2.0,92.98,,1
2023-03-28 17:03:17.303,1680003197.303,,0.2644107,0.22356164,0.68815064,1.8552603,0.6786526,-0.020553699,0.11122173,0.37628347,1.0695729,0.17746799,0.38599983,1.2178344,0.62305117,-0.40249342,0.06782865,1.2943034,-0.084826104,-0.9935221,-0.23300001,1.2915044,864.2857,857.8388,850.58606,749.0476,888.46155,-0.06048583984375,0.1541748046875,0.99749755859375,-0.485992431640625,2.34771728515625,4.029998779296875,1.0,1.0,1.0,1.0,2.0,92.98,,1
2023-03-28 17:03:17.305,1680003197.305,,0.2644107,0.22356164,0.68815064,1.8552603,0.6786526,-0.020553699,0.11122173,0.37628347,1.0695729,0.17746799,0.38599983,1.2178344,0.62305117,-0.40249342,0.06782865,1.2943034,-0.084826104,-0.9935221,-0.23300001,1.2915044,867.50916,854.21246,851.79486,728.0952,861.8681,-0.06048583984375,0.1541748046875,0.99749755859375,-0.485992431640625,2.34771728515625,4.029998779296875,1.0,1.0,1.0,1.0,2.0,92.98,,1
2023-03-28 17:03:17.306,1680003197.306,,0.2644107,0.22356164,0.68815064,1.8552603,0.6786526,-0.020553699,0.11122173,0.37628347,1.0695729,0.17746799,0.38599983,1.2178344,0.62305117,-0.40249342,0.06782865,1.2943034,-0.084826104,-0.9935221,-0.23300001,1.2915044,872.74725,852.1978,850.58606,701.50183,828.022,-0.06048583984375,0.1541748046875,0.99749755859375,-0.485992431640625,2.34771728515625,4.029998779296875,1.0,1.0,1.0,1.0,2.0,92.98,,1
2023-03-28 17:03:17.307,1680003197.307,,0.2644107,0.22356164,0.68815064,1.8552603,0.6786526,-0.020553699,0.11122173,0.37628347,1.0695729,0.17746799,0.38599983,1.2178344,0.62305117,-0.40249342,0.06782865,1.2943034,-0.084826104,-0.9935221,-0.23300001,1.2915044,862.674,854.61536,851.79486,730.10986,868.315,-0.06048583984375,0.1541748046875,0.99749755859375,-0.485992431640625,2.34771728515625,4.029998779296875,1.0,1.0,1.0,1.0,2.0,92.98,,1
2023-03-28 17:03:17.309,1680003197.309,,0.2644107,0.22356164,0.68815064,1.8552603,0.6786526,-0.020553699,0.11122173,0.37628347,1.0695729,0.17746799,0.38599983,1.2178344,0.62305117,-0.40249342,0.06782865,1.2943034,-0.084826104,-0.9935221,-0.23300001,1.2915044,844.94507,855.0183,853.4066,724.87177,867.50916,-0.06048583984375,0.1541748046875,0.99749755859375,-0.485992431640625,2.34771728515625,4.029998779296875,1.0,1.0,1.0,1.0,2.0,92.98,,1
2023-03-28 17:03:17.310,1680003197.31,,0.2644107,0.22356164,0.68815064,1.8552603,0.6786526,-0.020553699,0.11122173,0.37628347,1.0695729,0.17746799,0.38599983,1.2178344,0.62305117,-0.40249342,0.06782865,1.2943034,-0.084826104,-0.9935221,-0.23300001,1.2915044,838.0952,851.79486,853.00366,727.6923,857.03296,-0.06048583984375,0.1541748046875,0.99749755859375,-0.485992431640625,2.34771728515625,4.029998779296875,1.0,1.0,1.0,1.0,2.0,92.98,,1
2023-03-28 17:03:17.359,1680003197.359,,0.2644107,0.22356164,0.68815064,1.8552603,0.6786526,-0.020553699,0.11122173,0.37628347,1.0695729,0.17746799,0.38599983,1.2178344,0.62305117,-0.40249342,0.06782865,1.2943034,-0.084826104,-0.9935221,-0.23300001,1.2915044,840.9158,850.989,852.6007,755.89746,874.35895,-0.0577392578125,0.1551513671875,0.99481201171875,-0.755157470703125,2.10845947265625,4.239349365234375,1.0,1.0,1.0,1.0,2.0,92.98,,1
2023-03-28 17:03:17.360,1680003197.36,,0.2644107,0.22356164,0.68815064,1.8552603,0.6786526,-0.020553699,0.11122173,0.37628347,1.0695729,0.17746799,0.38599983,1.2178344,0.62305117,-0.40249342,0.06782865,1.2943034,-0.084826104,-0.9935221,-0.23300001,1.2915044,851.79486,853.00366,853.00366,738.1685,848.97437,-0.0577392578125,0.1551513671875,0.99481201171875,-0.755157470703125,2.10845947265625,4.239349365234375,1.0,1.0,1.0,1.0,2.0,92.98,,1
2023-03-28 17:03:17.361,1680003197.361,,0.2644107,0.22356164,0.68815064,1.8552603,0.6786526,-0.020553699,0.11122173,0.37628347,1.0695729,0.17746799,0.38599983,1.2178344,0.62305117,-0.40249342,0.06782865,1.2943034,-0.084826104,-0.9935221,-0.23300001,1.2915044,854.21246,852.6007,850.18317,752.27106,865.09155,-0.0577392578125,0.1551513671875,0.99481201171875,-0.755157470703125,2.10845947265625,4.239349365234375,1.0,1.0,1.0,1.0,2.0,92.98,,1
2023-03-28 17:03:17.363,1680003197.363,,0.2644107,0.22356164,0.68815064,1.8552603,0.6786526,-0.020553699,0.11122173,0.37628347,1.0695729,0.17746799,0.38599983,1.2178344,0.62305117,-0.40249342,0.06782865,1.2943034,-0.084826104,-0.9935221,-0.23300001,1.2915044,844.1392,853.00366,844.5421,759.5238,869.5238,-0.0577392578125,0.1551513671875,0.99481201171875,-0.755157470703125,2.10845947265625,4.239349365234375,1.0,1.0,1.0,1.0,2.0,92.98,,1
2023-03-28 17:03:17.364,1680003197.3639998,,0.2644107,0.22356164,0.68815064,1.8552603,0.6786526,-0.020553699,0.11122173,0.37628347,1.0695729,0.17746799,0.38599983,1.2178344,0.62305117,-0.40249342,0.06782865,1.2943034,-0.084826104,-0.9935221,-0.23300001,1.2915044,844.5421,853.4066,847.3626,727.28937,821.1722,-0.0577392578125,0.1551513671875,0.99481201171875,-0.755157470703125,2.10845947265625,4.239349365234375,1.0,1.0,1.0,1.0,2.0,92.98,,1
2023-03-28 17:03:17.365,1680003197.365,,0.2644107,0.22356164,0.68815064,1.8552603,0.6786526,-0.020553699,0.11122173,0.37628347,1.0695729,0.17746799,0.38599983,1.2178344,0.62305117,-0.40249342,0.06782865,1.2943034,-0.084826104,-0.9935221,-0.23300001,1.2915044,840.5128,851.79486,852.6007,722.8571,782.8938,-0.0577392578125,0.1551513671875,0.99481201171875,-0.755157470703125,2.10845947265625,4.239349365234375,1.0,1.0,1.0,1.0,2.0,92.98,,1
2023-03-28 17:03:17.366,1680003197.366,,0.2644107,0.22356164,0.68815064,1.8552603,0.6786526,-0.020553699,0.11122173,0.37628347,1.0695729,0.17746799,0.38599983,1.2178344,0.62305117,-0.40249342,0.06782865,1.2943034,-0.084826104,-0.9935221,-0.23300001,1.2915044,845.34796,852.6007,853.8095,841.31866,866.7033,-0.0577392578125,0.1551513671875,0.99481201171875,-0.755157470703125,2.10845947265625,4.239349365234375,1.0,1.0,1.0,1.0,2.0,92.98,,1
2023-03-28 17:03:17.367,1680003197.367,,0.2644107,0.22356164,0.68815064,1.8552603,0.6786526,-0.020553699,0.11122173,0.37628347,1.0695729,0.17746799,0.38599983,1.2178344,0.62305117,-0.40249342,0.06782865,1.2943034,-0.084826104,-0.9935221,-0.23300001,1.2915044,848.97437,850.18317,857.03296,932.7839,927.1429,-0.0577392578125,0.1551513671875,0.99481201171875,-0.755157470703125,2.10845947265625,4.239349365234375,1.0,1.0,1.0,1.0,2.0,92.98,,1
2023-03-28 17:03:17.368,1680003197.368,,0.2644107,0.22356164,0.68815064,1.8552603,0.6786526,-0.020553699,0.11122173,0.37628347,1.0695729,0.17746799,0.38599983,1.2178344,0.62305117,-0.40249342,0.06782865,1.2943034,-0.084826104,-0.9935221,-0.23300001,1.2915044,839.304,848.5714,856.2271,1028.2784,881.6117,-0.0577392578125,0.1551513671875,0.99481201171875,-0.755157470703125,2.10845947265625,4.239349365234375,1.0,1.0,1.0,1.0,2.0,92.98,,1
2023-03-28 17:03:17.370,1680003197.37,,0.2644107,0.22356164,0.68815064,1.8552603,0.6786526,-0.020553699,0.11122173,0.37628347,1.0695729,0.17746799,0.38599983,1.2178344,0.62305117,-0.40249342,0.06782865,1.2943034,-0.084826104,-0.9935221,-0.23300001,1.2915044,836.8865,850.58606,856.2271,1301.4652,872.74725,-0.0577392578125,0.1551513671875,0.99481201171875,-0.755157470703125,2.10845947265625,4.239349365234375,1.0,1.0,1.0,1.0,2.0,92.98,,1
2023-03-28 17:03:17.371,1680003197.371,,0.2644107,0.22356164,0.68815064,1.8552603,0.6786526,-0.020553699,0.11122173,0.37628347,1.0695729,0.17746799,0.38599983,1.2178344,0.62305117,-0.40249342,0.06782865,1.2943034,-0.084826104,-0.9935221,-0.23300001,1.2915044,842.52747,849.3773,854.61536,1572.6373,873.95605,-0.0577392578125,0.1551513671875,0.99481201171875,-0.755157470703125,2.10845947265625,4.239349365234375,1.0,1.0,1.0,1.0,2.0,92.98,,1
2023-03-28 17:03:17.372,1680003197.372,,0.2644107,0.22356164,0.68815064,1.8552603,0.6786526,-0.020553699,0.11122173,0.37628347,1.0695729,0.17746799,0.38599983,1.2178344,0.62305117,-0.40249342,0.06782865,1.2943034,-0.084826104,-0.9935221,-0.23300001,1.2915044,862.674,850.18317,854.21246,6.0439563,866.7033,-0.0577392578125,0.1551513671875,0.99481201171875,-0.755157470703125,2.10845947265625,4.239349365234375,1.0,1.0,1.0,1.0,2.0,92.98,,1
2023-03-28 17:03:17.374,1680003197.3739998,,0.2644107,0.22356164,0.68815064,1.8552603,0.6786526,-0.020553699,0.11122173,0.37628347,1.0695729,0.17746799,0.38599983,1.2178344,0.62305117,-0.40249342,0.06782865,1.2943034,-0.084826104,-0.9935221,-0.23300001,1.2915044,868.71796,853.4066,858.6447,1639.5238,815.9341,-0.0621337890625,0.151611328125,0.99810791015625,-0.83740234375,2.519683837890625,4.164581298828125,1.0,1.0,1.0,1.0,2.0,92.98,,1
2023-03-28 17:03:17.375,1680003197.375,,0.2644107,0.22356164,0.68815064,1.8552603,0.6786526,-0.020553699,0.11122173,0.37628347,1.0695729,0.17746799,0.38599983,1.2178344,0.62305117,-0.40249342,0.06782865,1.2943034,-0.084826104,-0.9935221,-0.23300001,1.2915044,850.58606,855.82416,858.6447,1641.9414,823.1868,-0.0621337890625,0.151611328125,0.99810791015625,-0.83740234375,2.519683837890625,4.164581298828125,1.0,1.0,1.0,1.0,2.0,92.98,,1
2023-03-28 17:03:17.376,1680003197.376,,0.2644107,0.22356164,0.68815064,1.8552603,0.6786526,-0.020553699,0.11122173,0.37628347,1.0695729,0.17746799,0.38599983,1.2178344,0.62305117,-0.40249342,0.06782865,1.2943034,-0.084826104,-0.9935221,-0.23300001,1.2915044,841.31866,857.03296,855.0183,1608.9011,861.06226,-0.0621337890625,0.151611328125,0.99810791015625,-0.83740234375,2.519683837890625,4.164581298828125,1.0,1.0,1.0,1.0,2.0,92.98,,1
2023-03-28 17:03:17.377,1680003197.377,,0.2644107,0.22356164,0.68815064,1.8552603,0.6786526,-0.020553699,0.11122173,0.37628347,1.0695729,0.17746799,0.38599983,1.2178344,0.62305117,-0.40249342,0.06782865,1.2943034,-0.084826104,-0.9935221,-0.23300001,1.2915044,845.7509,851.39197,853.8095,1569.011,862.27106,-0.0621337890625,0.151611328125,0.99810791015625,-0.83740234375,2.519683837890625,4.164581298828125,1.0,1.0,1.0,1.0,2.0,92.98,,1
2023-03-28 17:03:17.379,1680003197.379,,0.2644107,0.22356164,0.68815064,1.8552603,0.6786526,-0.020553699,0.11122173,0.37628347,1.0695729,0.17746799,0.38599983,1.2178344,0.62305117,-0.40249342,0.06782865,1.2943034,-0.084826104,-0.9935221,-0.23300001,1.2915044,855.82416,849.3773,855.82416,1518.2417,853.4066,-0.0621337890625,0.151611328125,0.99810791015625,-0.83740234375,2.519683837890625,4.164581298828125,1.0,1.0,1.0,1.0,2.0,92.98,,1
2023-03-28 17:03:17.388,1680003197.388,,0.2644107,0.22356164,0.68815064,1.8552603,0.6786526,-0.020553699,0.11122173,0.37628347,1.0695729,0.30275562,0.48509496,1.2178344,0.62305117,-0.40249342,0.06782865,1.2943034,-0.084826104,-0.9935221,-0.23300001,1.2915044,855.82416,849.3773,855.82416,1518.2417,853.4066,-0.0621337890625,0.151611328125,0.99810791015625,-0.83740234375,2.519683837890625,4.164581298828125,1.0,1.0,1.0,1.0,2.0,92.98,,1
2023-03-28 17:03:17.390,1680003197.39,,0.2644107,0.22356164,0.68815064,1.8552603,0.6786526,-0.020553699,0.11122173,0.37628347,1.0695729,0.30275562,0.48509496,1.2178344,0.60675585,-0.39166197,0.049625296,1.2943034,-0.084826104,-0.9935221,-0.23300001,1.2915044,855.82416,849.3773,855.82416,1518.2417,853.4066,-0.0621337890625,0.151611328125,0.99810791015625,-0.83740234375,2.519683837890625,4.164581298828125,1.0,1.0,1.0,1.0,2.0,92.98,,1
2023-03-28 17:03:17.391,1680003197.391,,0.31059626,0.3854163,0.819688,1.8552603,0.6786526,-0.020553699,0.11122173,0.37628347,1.0695729,0.30275562,0.48509496,1.2178344,0.60675585,-0.39166197,0.049625296,1.2943034,-0.084826104,-0.9935221,-0.23300001,1.2915044,855.82416,849.3773,855.82416,1518.2417,853.4066,-0.0621337890625,0.151611328125,0.99810791015625,-0.83740234375,2.519683837890625,4.164581298828125,1.0,1.0,1.0,1.0,2.0,92.98,,1
2023-03-28 17:03:17.393,1680003197.393,,0.31059626,0.3854163,0.819688,1.8552603,0.68899494,0.043351807,0.2715707,0.37628347,1.0695729,0.30275562,0.48509496,1.2178344,0.60675585,-0.39166197,0.049625296,1.2943034,-0.084826104,-0.9935221,-0.23300001,1.2915044,855.82416,849.3773,855.82416,1518.2417,853.4066,-0.0621337890625,0.151611328125,0.99810791015625,-0.83740234375,2.519683837890625,4.164581298828125,1.0,1.0,1.0,1.0,2.0,92.98,,1
2023-03-28 17:03:17.394,1680003197.394,,0.31059626,0.3854163,0.819688,1.8552603,0.68899494,0.043351807,0.2715707,0.37628347,1.0695729,0.30275562,0.48509496,1.2178344,0.60675585,-0.39166197,0.049625296,1.2943034,-0.11065331,-0.99422354,-0.2618235,1.2915044,855.82416,849.3773,855.82416,1518.2417,853.4066,-0.0621337890625,0.151611328125,0.99810791015625,-0.83740234375,2.519683837890625,4.164581298828125,1.0,1.0,1.0,1.0,2.0,92.98,,1
2023-03-28 17:03:17.380,1680003197.38,,0.31059626,0.3854163,0.819688,1.8552603,0.68899494,0.043351807,0.2715707,0.37628347,1.0695729,0.30275562,0.48509496,1.2178344,0.60675585,-0.39166197,0.049625296,1.2943034,-0.11065331,-0.99422354,-0.2618235,1.2915044,863.8828,853.4066,854.21246,1464.652,853.00366,-0.0621337890625,0.151611328125,0.99810791015625,-0.83740234375,2.519683837890625,4.164581298828125,1.0,1.0,1.0,1.0,2.0,92.98,,1
2023-03-28 17:03:17.396,1680003197.396,,0.31059626,0.3854163,0.819688,1.8552603,0.68899494,0.043351807,0.2715707,0.37628347,1.0695729,0.30275562,0.48509496,1.2178344,0.60675585,-0.39166197,0.049625296,1.2943034,-0.11065331,-0.99422354,-0.2618235,1.2915044,853.8095,849.7802,856.2271,1396.5568,841.7216,-0.0621337890625,0.151611328125,0.99810791015625,-0.83740234375,2.519683837890625,4.164581298828125,1.0,1.0,1.0,1.0,2.0,92.98,,1
2023-03-28 17:03:17.398,1680003197.398,,0.31059626,0.3854163,0.819688,1.8552603,0.68899494,0.043351807,0.2715707,0.37628347,1.0695729,0.30275562,0.48509496,1.2178344,0.60675585,-0.39166197,0.049625296,1.2943034,-0.11065331,-0.99422354,-0.2618235,1.2915044,843.3333,847.3626,858.6447,1340.9524,827.619,-0.0621337890625,0.151611328125,0.99810791015625,-0.83740234375,2.519683837890625,4.164581298828125,1.0,1.0,1.0,1.0,2.0,92.98,,1
2023-03-28 17:03:17.399,1680003197.399,,0.31059626,0.3854163,0.819688,1.8552603,0.68899494,0.043351807,0.2715707,0.37628347,1.0695729,0.30275562,0.48509496,1.2178344,0.60675585,-0.39166197,0.049625296,1.2943034,-0.11065331,-0.99422354,-0.2618235,1.2915044,841.31866,848.97437,856.63007,1334.1025,851.39197,-0.0621337890625,0.151611328125,0.99810791015625,-0.83740234375,2.519683837890625,4.164581298828125,1.0,1.0,1.0,1.0,2.0,92.98,,1
2023-03-28 17:03:17.400,1680003197.4,,0.31059626,0.3854163,0.819688,1.8552603,0.68899494,0.043351807,0.2715707,0.37628347,1.0695729,0.30275562,0.48509496,1.2178344,0.60675585,-0.39166197,0.049625296,1.2943034,-0.11065331,-0.99422354,-0.2618235,1.2915044,850.989,848.1685,857.03296,1303.4799,830.4396,-0.0621337890625,0.151611328125,0.99810791015625,-0.83740234375,2.519683837890625,4.164581298828125,1.0,1.0,1.0,1.0,2.0,92.98,,1
2023-03-28 17:03:17.402,1680003197.402,,0.31059626,0.3854163,0.819688,1.8552603,0.68899494,0.043351807,0.2715707,0.37628347,1.0695729,0.30275562,0.48509496,1.2178344,0.60675585,-0.39166197,0.049625296,1.2943034,-0.11065331,-0.99422354,-0.2618235,1.2915044,859.45056,848.5714,858.24176,1322.0146,826.8132,-0.0621337890625,0.151611328125,0.99810791015625,-0.83740234375,2.519683837890625,4.164581298828125,1.0,1.0,1.0,1.0,2.0,92.98,,1
2023-03-28 17:03:17.403,1680003197.403,,0.31059626,0.3854163,0.819688,1.8552603,0.68899494,0.043351807,0.2715707,0.37628347,1.0695729,0.30275562,0.48509496,1.2178344,0.60675585,-0.39166197,0.049625296,1.2943034,-0.11065331,-0.99422354,-0.2618235,1.2915044,847.76556,847.3626,857.03296,1356.2638,849.7802,-0.0621337890625,0.151611328125,0.99810791015625,-0.83740234375,2.519683837890625,4.164581298828125,1.0,1.0,1.0,1.0,2.0,92.98,,1
2023-03-28 17:03:17.404,1680003197.404,,0.31059626,0.3854163,0.819688,1.8552603,0.68899494,0.043351807,0.2715707,0.37628347,1.0695729,0.30275562,0.48509496,1.2178344,0.60675585,-0.39166197,0.049625296,1.2943034,-0.11065331,-0.99422354,-0.2618235,1.2915044,840.9158,848.5714,854.21246,1355.0549,869.92676,-0.0606689453125,0.1536865234375,0.999755859375,-0.16448974609375,2.97576904296875,4.015045166015625,1.0,1.0,1.0,1.0,2.0,92.98,,1
2023-03-28 17:03:17.406,1680003197.406,,0.31059626,0.3854163,0.819688,1.8552603,0.68899494,0.043351807,0.2715707,0.37628347,1.0695729,0.30275562,0.48509496,1.2178344,0.60675585,-0.39166197,0.049625296,1.2943034,-0.11065331,-0.99422354,-0.2618235,1.2915044,843.73627,851.39197,853.00366,1333.2968,882.8205,-0.0606689453125,0.1536865234375,0.999755859375,-0.16448974609375,2.97576904296875,4.015045166015625,1.0,1.0,1.0,1.0,2.0,92.98,,1
2023-03-28 17:03:17.407,1680003197.407,,0.31059626,0.3854163,0.819688,1.8552603,0.68899494,0.043351807,0.2715707,0.37628347,1.0695729,0.30275562,0.48509496,1.2178344,0.60675585,-0.39166197,0.049625296,1.2943034,-0.11065331,-0.99422354,-0.2618235,1.2915044,857.4359,852.1978,850.18317,1262.7839,846.9597,-0.0606689453125,0.1536865234375,0.999755859375,-0.16448974609375,2.97576904296875,4.015045166015625,1.0,1.0,1.0,1.0,2.0,92.98,,1
2023-03-28 17:03:17.408,1680003197.408,,0.31059626,0.3854163,0.819688,1.8552603,0.68899494,0.043351807,0.2715707,0.37628347,1.0695729,0.30275562,0.48509496,1.2178344,0.60675585,-0.39166197,0.049625296,1.2943034,-0.11065331,-0.99422354,-0.2618235,1.2915044,865.89746,853.00366,850.58606,1192.674,811.0989,-0.0606689453125,0.1536865234375,0.999755859375,-0.16448974609375,2.97576904296875,4.015045166015625,1.0,1.0,1.0,1.0,2.0,92.98,,1
2023-03-28 17:03:17.410,1680003197.4099998,,0.31059626,0.3854163,0.819688,1.8552603,0.68899494,0.043351807,0.2715707,0.37628347,1.0695729,0.30275562,0.48509496,1.2178344,0.60675585,-0.39166197,0.049625296,1.2943034,-0.11065331,-0.99422354,-0.2618235,1.2915044,855.0183,852.6007,850.58606,1165.2748,831.2454,-0.0606689453125,0.1536865234375,0.999755859375,-0.16448974609375,2.97576904296875,4.015045166015625,1.0,1.0,1.0,1.0,2.0,92.98,,1
2023-03-28 17:03:17.411,1680003197.411,,0.31059626,0.3854163,0.819688,1.8552603,0.68899494,0.043351807,0.2715707,0.37628347,1.0695729,0.30275562,0.48509496,1.2178344,0.60675585,-0.39166197,0.049625296,1.2943034,-0.11065331,-0.99422354,-0.2618235,1.2915044,844.1392,849.7802,852.1978,1122.1611,831.6484,-0.0606689453125,0.1536865234375,0.999755859375,-0.16448974609375,2.97576904296875,4.015045166015625,1.0,1.0,1.0,1.0,2.0,92.98,,1
2023-03-28 17:03:17.412,1680003197.412,,0.31059626,0.3854163,0.819688,1.8552603,0.68899494,0.043351807,0.2715707,0.37628347,1.0695729,0.30275562,0.48509496,1.2178344,0.60675585,-0.39166197,0.049625296,1.2943034,-0.11065331,-0.99422354,-0.2618235,1.2915044,847.3626,847.76556,857.03296,1081.8682,823.5897,-0.0606689453125,0.1536865234375,0.999755859375,-0.16448974609375,2.97576904296875,4.015045166015625,1.0,1.0,1.0,1.0,2.0,92.98,,1
2023-03-28 17:03:17.413,1680003197.413,,0.31059626,0.3854163,0.819688,1.8552603,0.68899494,0.043351807,0.2715707,0.37628347,1.0695729,0.30275562,0.48509496,1.2178344,0.60675585,-0.39166197,0.049625296,1.2943034,-0.11065331,-0.99422354,-0.2618235,1.2915044,861.8681,847.76556,858.24176,1101.6117,870.7326,-0.0606689453125,0.1536865234375,0.999755859375,-0.16448974609375,2.97576904296875,4.015045166015625,1.0,1.0,1.0,1.0,2.0,92.98,,1
2023-03-28 17:03:17.414,1680003197.414,,0.31059626,0.3854163,0.819688,1.8552603,0.68899494,0.043351807,0.2715707,0.37628347,1.0695729,0.30275562,0.48509496,1.2178344,0.60675585,-0.39166197,0.049625296,1.2943034,-0.11065331,-0.99422354,-0.2618235,1.2915044,869.12085,848.1685,854.61536,1078.2417,871.13556,-0.0606689453125,0.1536865234375,0.999755859375,-0.16448974609375,2.97576904296875,4.015045166015625,1.0,1.0,1.0,1.0,2.0,92.98,,1
2023-03-28 17:03:17.415,1680003197.415,,0.31059626,0.3854163,0.819688,1.8552603,0.68899494,0.043351807,0.2715707,0.37628347,1.0695729,0.30275562,0.48509496,1.2178344,0.60675585,-0.39166197,0.049625296,1.2943034,-0.11065331,-0.99422354,-0.2618235,1.2915044,862.27106,847.3626,853.4066,1020.6227,848.1685,-0.0606689453125,0.1536865234375,0.999755859375,-0.16448974609375,2.97576904296875,4.015045166015625,1.0,1.0,1.0,1.0,2.0,92.98,,1
2023-03-28 17:03:17.416,1680003197.416,,0.31059626,0.3854163,0.819688,1.8552603,0.68899494,0.043351807,0.2715707,0.37628347,1.0695729,0.30275562,0.48509496,1.2178344,0.60675585,-0.39166197,0.049625296,1.2943034,-0.11065331,-0.99422354,-0.2618235,1.2915044,847.76556,846.9597,855.0183,970.2564,829.2308,-0.0606689453125,0.1536865234375,0.999755859375,-0.16448974609375,2.97576904296875,4.015045166015625,1.0,1.0,1.0,1.0,2.0,92.98,,1
2023-03-28 17:03:17.418,1680003197.418,,0.31059626,0.3854163,0.819688,1.8552603,0.68899494,0.043351807,0.2715707,0.37628347,1.0695729,0.30275562,0.48509496,1.2178344,0.60675585,-0.39166197,0.049625296,1.2943034,-0.11065331,-0.99422354,-0.2618235,1.2915044,843.3333,846.9597,856.2271,938.022,818.7546,-0.0606689453125,0.1536865234375,0.999755859375,-0.16448974609375,2.97576904296875,4.015045166015625,1.0,1.0,1.0,1.0,2.0,92.98,,1
2023-03-28 17:03:17.451,1680003197.451,,0.31059626,0.3854163,0.819688,1.8552603,0.68899494,0.043351807,0.2715707,0.37628347,1.0695729,0.30275562,0.48509496,1.2178344,0.60675585,-0.39166197,0.049625296,1.2943034,-0.11065331,-0.99422354,-0.2618235,1.2915044,858.6447,847.76556,855.42126,956.9597,855.0183,-0.056884765625,0.1558837890625,0.99322509765625,-0.46356201171875,2.10845947265625,4.164581298828125,1.0,1.0,1.0,1.0,2.0,92.98,,1
2023-03-28 17:03:17.453,1680003197.453,,0.31059626,0.3854163,0.819688,1.8552603,0.68899494,0.043351807,0.2715707,0.37628347,1.0695729,0.30275562,0.48509496,1.2178344,0.60675585,-0.39166197,0.049625296,1.2943034,-0.11065331,-0.99422354,-0.2618235,1.2915044,867.1062,849.3773,852.1978,947.6923,865.89746,-0.056884765625,0.1558837890625,0.99322509765625,-0.46356201171875,2.10845947265625,4.164581298828125,1.0,1.0,1.0,1.0,2.0,92.98,,1
2023-03-28 17:03:17.455,1680003197.455,,0.31059626,0.3854163,0.819688,1.8552603,0.68899494,0.043351807,0.2715707,0.37628347,1.0695729,0.30275562,0.48509496,1.2178344,0.60675585,-0.39166197,0.049625296,1.2943034,-0.11065331,-0.99422354,-0.2618235,1.2915044,861.8681,853.00366,851.79486,899.7436,845.34796,-0.056884765625,0.1558837890625,0.99322509765625,-0.46356201171875,2.10845947265625,4.164581298828125,1.0,1.0,1.0,1.0,2.0,92.98,,1
2023-03-28 17:03:17.457,1680003197.457,,0.31059626,0.3854163,0.819688,1.8552603,0.68899494,0.043351807,0.2715707,0.37628347,1.0695729,0.30275562,0.48509496,1.2178344,0.60675585,-0.39166197,0.049625296,1.2943034,-0.11065331,-0.99422354,-0.2618235,1.2915044,850.58606,853.00366,853.8095,863.8828,829.6337,-0.056884765625,0.1558837890625,0.99322509765625,-0.46356201171875,2.10845947265625,4.164581298828125,1.0,1.0,1.0,1.0,2.0,92.98,,1
2023-03-28 17:03:17.459,1680003197.459,,0.31059626,0.3854163,0.819688,1.8552603,0.68899494,0.043351807,0.2715707,0.37628347,1.0695729,0.30275562,0.48509496,1.2178344,0.60675585,-0.39166197,0.049625296,1.2943034,-0.11065331,-0.99422354,-0.2618235,1.2915044,844.94507,850.18317,851.79486,884.83514,865.4945,-0.056884765625,0.1558837890625,0.99322509765625,-0.46356201171875,2.10845947265625,4.164581298828125,1.0,1.0,1.0,1.0,2.0,92.98,,1
2023-03-28 17:03:17.460,1680003197.46,,0.31059626,0.3854163,0.819688,1.8552603,0.68899494,0.043351807,0.2715707,0.37628347,1.0695729,0.30275562,0.48509496,1.2178344,0.60675585,-0.39166197,0.049625296,1.2943034,-0.11065331,-0.99422354,-0.2618235,1.2915044,856.2271,848.97437,852.1978,908.20514,900.9524,-0.056884765625,0.1558837890625,0.99322509765625,-0.46356201171875,2.10845947265625,4.164581298828125,1.0,1.0,1.0,1.0,2.0,92.98,,1
2023-03-28 17:03:17.463,1680003197.463,,0.31059626,0.3854163,0.819688,1.8552603,0.68899494,0.043351807,0.2715707,0.37628347,1.0695729,0.30275562,0.48509496,1.2178344,0.60675585,-0.39166197,0.049625296,1.2943034,-0.11065331,-0.99422354,-0.2618235,1.2915044,867.1062,850.989,856.2271,873.1502,873.5531,-0.056884765625,0.1558837890625,0.99322509765625,-0.46356201171875,2.10845947265625,4.164581298828125,1.0,1.0,1.0,1.0,2.0,92.98,,1
2023-03-28 17:03:17.472,1680003197.472,,0.31059626,0.3854163,0.819688,1.8552603,0.68899494,0.043351807,0.2715707,0.37628347,1.0695729,0.3237955,0.48534843,1.2178344,0.60675585,-0.39166197,0.049625296,1.2943034,-0.11065331,-0.99422354,-0.2618235,1.2915044,867.1062,850.989,856.2271,873.1502,873.5531,-0.056884765625,0.1558837890625,0.99322509765625,-0.46356201171875,2.10845947265625,4.164581298828125,1.0,1.0,1.0,1.0,2.0,92.98,,1
2023-03-28 17:03:17.474,1680003197.474,,0.31059626,0.3854163,0.819688,1.8552603,0.68899494,0.043351807,0.2715707,0.37628347,1.0695729,0.3237955,0.48534843,1.2178344,0.5894097,-0.3819384,0.026081804,1.2943034,-0.11065331,-0.99422354,-0.2618235,1.2915044,867.1062,850.989,856.2271,873.1502,873.5531,-0.056884765625,0.1558837890625,0.99322509765625,-0.46356201171875,2.10845947265625,4.164581298828125,1.0,1.0,1.0,1.0,2.0,92.98,,1
2023-03-28 17:03:17.476,1680003197.476,,0.35780966,0.5040747,0.9175826,1.8552603,0.68899494,0.043351807,0.2715707,0.37628347,1.0695729,0.3237955,0.48534843,1.2178344,0.5894097,-0.3819384,0.026081804,1.2943034,-0.11065331,-0.99422354,-0.2618235,1.2915044,867.1062,850.989,856.2271,873.1502,873.5531,-0.056884765625,0.1558837890625,0.99322509765625,-0.46356201171875,2.10845947265625,4.164581298828125,1.0,1.0,1.0,1.0,2.0,92.98,,1
2023-03-28 17:03:17.477,1680003197.477,,0.35780966,0.5040747,0.9175826,1.8552603,0.69054496,0.09296232,0.37803334,0.37628347,1.0695729,0.3237955,0.48534843,1.2178344,0.5894097,-0.3819384,0.026081804,1.2943034,-0.11065331,-0.99422354,-0.2618235,1.2915044,867.1062,850.989,856.2271,873.1502,873.5531,-0.056884765625,0.1558837890625,0.99322509765625,-0.46356201171875,2.10845947265625,4.164581298828125,1.0,1.0,1.0,1.0,2.0,92.98,,1
2023-03-28 17:03:17.479,1680003197.479,,0.35780966,0.5040747,0.9175826,1.8552603,0.69054496,0.09296232,0.37803334,0.37628347,1.0695729,0.3237955,0.48534843,1.2178344,0.5894097,-0.3819384,0.026081804,1.2943034,-0.13147487,-0.9883354,-0.28671163,1.2915044,867.1062,850.989,856.2271,873.1502,873.5531,-0.056884765625,0.1558837890625,0.99322509765625,-0.46356201171875,2.10845947265625,4.164581298828125,1.0,1.0,1.0,1.0,2.0,92.98,,1
2023-03-28 17:03:17.464,1680003197.464,,0.35780966,0.5040747,0.9175826,1.8552603,0.69054496,0.09296232,0.37803334,0.37628347,1.0695729,0.3237955,0.48534843,1.2178344,0.5894097,-0.3819384,0.026081804,1.2943034,-0.13147487,-0.9883354,-0.28671163,1.2915044,865.4945,852.1978,858.6447,816.337,830.0366,-0.056884765625,0.1558837890625,0.99322509765625,-0.46356201171875,2.10845947265625,4.164581298828125,1.0,1.0,1.0,1.0,4.0,92.98,,1
2023-03-28 17:03:17.481,1680003197.481,,0.35780966,0.5040747,0.9175826,1.8552603,0.69054496,0.09296232,0.37803334,0.37628347,1.0695729,0.3237955,0.48534843,1.2178344,0.5894097,-0.3819384,0.026081804,1.2943034,-0.13147487,-0.9883354,-0.28671163,1.2915044,854.61536,850.989,859.0476,828.022,862.27106,-0.056884765625,0.1558837890625,0.99322509765625,-0.46356201171875,2.10845947265625,4.164581298828125,1.0,1.0,1.0,1.0,4.0,92.98,,1
2023-03-28 17:03:17.483,1680003197.483,,0.35780966,0.5040747,0.9175826,1.8552603,0.69054496,0.09296232,0.37803334,0.37628347,1.0695729,0.3237955,0.48534843,1.2178344,0.5894097,-0.3819384,0.026081804,1.2943034,-0.13147487,-0.9883354,-0.28671163,1.2915044,850.58606,850.58606,857.03296,821.5751,871.53845,-0.056884765625,0.1558837890625,0.99322509765625,-0.46356201171875,2.10845947265625,4.164581298828125,1.0,1.0,1.0,1.0,4.0,92.98,,1
2023-03-28 17:03:17.484,1680003197.484,,0.35780966,0.5040747,0.9175826,1.8552603,0.69054496,0.09296232,0.37803334,0.37628347,1.0695729,0.3237955,0.48534843,1.2178344,0.5894097,-0.3819384,0.026081804,1.2943034,-0.13147487,-0.9883354,-0.28671163,1.2915044,859.0476,849.7802,857.03296,803.8461,859.0476,-0.056884765625,0.1558837890625,0.99322509765625,-0.46356201171875,2.10845947265625,4.164581298828125,1.0,1.0,1.0,1.0,4.0,92.98,,1
2023-03-28 17:03:17.485,1680003197.485,,0.35780966,0.5040747,0.9175826,1.8552603,0.69054496,0.09296232,0.37803334,0.37628347,1.0695729,0.3237955,0.48534843,1.2178344,0.5894097,-0.3819384,0.026081804,1.2943034,-0.13147487,-0.9883354,-0.28671163,1.2915044,869.12085,851.39197,856.2271,788.93774,846.55676,-0.056884765625,0.1558837890625,0.99322509765625,-0.46356201171875,2.10845947265625,4.164581298828125,1.0,1.0,1.0,1.0,4.0,92.98,,1
2023-03-28 17:03:17.486,1680003197.486,,0.35780966,0.5040747,0.9175826,1.8552603,0.69054496,0.09296232,0.37803334,0.37628347,1.0695729,0.3237955,0.48534843,1.2178344,0.5894097,-0.3819384,0.026081804,1.2943034,-0.13147487,-0.9883354,-0.28671163,1.2915044,869.5238,855.0183,851.39197,734.94507,802.23444,-0.056884765625,0.1558837890625,0.99322509765625,-0.46356201171875,2.10845947265625,4.164581298828125,1.0,1.0,1.0,1.0,4.0,92.98,,1
2023-03-28 17:03:17.487,1680003197.487,,0.35780966,0.5040747,0.9175826,1.8552603,0.69054496,0.09296232,0.37803334,0.37628347,1.0695729,0.3237955,0.48534843,1.2178344,0.5894097,-0.3819384,0.026081804,1.2943034,-0.13147487,-0.9883354,-0.28671163,1.2915044,857.4359,854.61536,850.989,753.8828,838.0952,-0.056884765625,0.1558837890625,0.99322509765625,-0.46356201171875,2.10845947265625,4.164581298828125,1.0,1.0,1.0,1.0,4.0,92.98,,1
2023-03-28 17:03:17.488,1680003197.488,,0.35780966,0.5040747,0.9175826,1.8552603,0.69054496,0.09296232,0.37803334,0.37628347,1.0695729,0.3237955,0.48534843,1.2178344,0.5894097,-0.3819384,0.026081804,1.2943034,-0.13147487,-0.9883354,-0.28671163,1.2915044,849.3773,855.42126,853.8095,793.7729,889.2674,-0.056884765625,0.1558837890625,0.99322509765625,-0.46356201171875,2.10845947265625,4.164581298828125,1.0,1.0,1.0,1.0,4.0,92.98,,1
2023-03-28 17:03:17.490,1680003197.49,,0.35780966,0.5040747,0.9175826,1.8552603,0.69054496,0.09296232,0.37803334,0.37628347,1.0695729,0.3237955,0.48534843,1.2178344,0.5894097,-0.3819384,0.026081804,1.2943034,-0.13147487,-0.9883354,-0.28671163,1.2915044,855.42126,853.8095,855.0183,785.31134,883.6264,-0.056884765625,0.1558837890625,0.99322509765625,-0.46356201171875,2.10845947265625,4.164581298828125,1.0,1.0,1.0,1.0,4.0,92.98,,1
2023-03-28 17:03:17.491,1680003197.491,,0.35780966,0.5040747,0.9175826,1.8552603,0.69054496,0.09296232,0.37803334,0.37628347,1.0695729,0.3237955,0.48534843,1.2178344,0.5894097,-0.3819384,0.026081804,1.2943034,-0.13147487,-0.9883354,-0.28671163,1.2915044,866.7033,850.58606,858.24176,796.1905,898.1319,-0.056884765625,0.1558837890625,0.99322509765625,-0.46356201171875,2.10845947265625,4.164581298828125,1.0,1.0,1.0,1.0,4.0,92.98,,1
2023-03-28 17:03:17.493,1680003197.493,,0.35780966,0.5040747,0.9175826,1.8552603,0.69054496,0.09296232,0.37803334,0.37628347,1.0695729,0.3237955,0.48534843,1.2178344,0.5894097,-0.3819384,0.026081804,1.2943034,-0.13147487,-0.9883354,-0.28671163,1.2915044,864.2857,852.6007,857.03296,727.28937,841.7216,-0.056884765625,0.1558837890625,0.99322509765625,-0.46356201171875,2.10845947265625,4.164581298828125,1.0,1.0,1.0,1.0,4.0,92.98,,1
2023-03-28 17:03:17.494,1680003197.494,,0.35780966,0.5040747,0.9175826,1.8552603,0.69054496,0.09296232,0.37803334,0.37628347,1.0695729,0.3237955,0.48534843,1.2178344,0.5894097,-0.3819384,0.026081804,1.2943034,-0.13147487,-0.9883354,-0.28671163,1.2915044,850.989,853.00366,856.2271,729.304,864.2857,-0.056884765625,0.1558837890625,0.99322509765625,-0.46356201171875,2.10845947265625,4.164581298828125,1.0,1.0,1.0,1.0,4.0,92.98,,1
2023-03-28 17:03:17.495,1680003197.495,,0.35780966,0.5040747,0.9175826,1.8552603,0.69054496,0.09296232,0.37803334,0.37628347,1.0695729,0.3237955,0.48534843,1.2178344,0.5894097,-0.3819384,0.026081804,1.2943034,-0.13147487,-0.9883354,-0.28671163,1.2915044,843.3333,852.6007,858.6447,779.2674,925.12823,-0.056884765625,0.1558837890625,0.99322509765625,-0.46356201171875,2.10845947265625,4.164581298828125,1.0,1.0,1.0,1.0,4.0,92.98,,1
2023-03-28 17:03:17.496,1680003197.496,,0.35780966,0.5040747,0.9175826,1.8552603,0.69054496,0.09296232,0.37803334,0.37628347,1.0695729,0.3237955,0.48534843,1.2178344,0.5894097,-0.3819384,0.026081804,1.2943034,-0.13147487,-0.9883354,-0.28671163,1.2915044,848.1685,850.18317,858.24176,747.4359,887.25275,-0.056884765625,0.1558837890625,0.99322509765625,-0.46356201171875,2.10845947265625,4.164581298828125,1.0,1.0,1.0,1.0,4.0,92.98,,1
2023-03-28 17:03:17.498,1680003197.498,,0.35780966,0.5040747,0.9175826,1.8552603,0.69054496,0.09296232,0.37803334,0.37628347,1.0695729,0.3237955,0.48534843,1.2178344,0.5894097,-0.3819384,0.026081804,1.2943034,-0.13147487,-0.9883354,-0.28671163,1.2915044,861.4652,846.55676,855.82416,755.09155,889.2674,-0.056884765625,0.1558837890625,0.99322509765625,-0.46356201171875,2.10845947265625,4.164581298828125,1.0,1.0,1.0,1.0,4.0,92.98,,1
2023-03-28 17:03:17.499,1680003197.4989998,,0.35780966,0.5040747,0.9175826,1.8552603,0.69054496,0.09296232,0.37803334,0.37628347,1.0695729,0.3237955,0.48534843,1.2178344,0.5894097,-0.3819384,0.026081804,1.2943034,-0.13147487,-0.9883354,-0.28671163,1.2915044,867.9121,848.97437,856.2271,707.9487,846.55676,-0.056884765625,0.1558837890625,0.99322509765625,-0.46356201171875,2.10845947265625,4.164581298828125,1.0,1.0,1.0,1.0,4.0,92.98,,1
2023-03-28 17:03:17.500,1680003197.5,,0.35780966,0.5040747,0.9175826,1.8552603,0.69054496,0.09296232,0.37803334,0.37628347,1.0695729,0.3237955,0.48534843,1.2178344,0.5894097,-0.3819384,0.026081804,1.2943034,-0.13147487,-0.9883354,-0.28671163,1.2915044,850.58606,854.61536,854.21246,693.0403,846.1539,-0.056884765625,0.1558837890625,0.99322509765625,-0.46356201171875,2.10845947265625,4.164581298828125,1.0,1.0,1.0,1.0,4.0,92.98,,1
